# Strata OUTPUT -- Response -- 25 (Outcrop) -- Shear Strain Time Series -- manual-example\G01000.AT2
# Example site for the manual figures
# Time (s),S-1
0,4.1224e-06
0.005,4.11678e-06
0.01,4.12436e-06
0.015,4.12924e-06
0.02,4.15228e-06
0.025,4.17547e-06
0.03,4.22607e-06
0.035,4.28448e-06
0.04,4.39096e-06
0.045,4.52907e-06
0.05,4.77506e-06
0.055,5.1493e-06
0.06,5.89661e-06
0.065,7.44287e-06
0.07,1.16073e-05
0.075,1.92873e-05
0.08,2.71015e-05
0.085,3.15392e-05
0.09,3.24948e-05
0.095,3.21546e-05
0.1,3.12206e-05
0.105,2.98801e-05
0.11,2.81955e-05
0.115,2.62708e-05
0.12,2.41516e-05
0.125,2.18885e-05
0.13,1.94716e-05
0.135,1.69321e-05
0.14,1.42665e-05
0.145,1.14815e-05
0.15,8.54939e-06
0.155,5.48529e-06
0.16,2.29605e-06
0.165,-9.81574e-07
0.17,-4.32973e-06
0.175,-7.70068e-06
0.18,-1.10507e-05
0.185,-1.43152e-05
0.19,-1.74962e-05
0.195,-2.0661e-05
0.2,-2.39596e-05
0.205,-2.75739e-05
0.21,-3.17244e-05
0.215,-3.64571e-05
0.22,-4.14312e-05
0.225,-4.60087e-05
0.23,-4.97271e-05
0.235,-5.25205e-05
0.24,-5.45929e-05
0.245,-5.61571e-05
0.25,-5.7368e-05
0.255,-5.82841e-05
0.26,-5.89114e-05
0.265,-5.92401e-05
0.27,-5.92986e-05
0.275,-5.91108e-05
0.28,-5.87096e-05
0.285,-5.81336e-05
0.29,-5.74616e-05
0.295,-5.6772e-05
0.3,-5.60949e-05
0.305,-5.53557e-05
0.31,-5.44663e-05
0.315,-5.33945e-05
0.32,-5.22029e-05
0.325,-5.10581e-05
0.33,-5.0264e-05
0.335,-5.0117e-05
0.34,-5.07608e-05
0.345,-5.21887e-05
0.35,-5.43352e-05
0.355,-5.70294e-05
0.36,-5.99932e-05
0.365,-6.28954e-05
0.37,-6.53978e-05
0.375,-6.71288e-05
0.38,-6.7765e-05
0.385,-6.71637e-05
0.39,-6.54862e-05
0.395,-6.31499e-05
0.4,-6.06639e-05
0.405,-5.84862e-05
0.41,-5.70366e-05
0.415,-5.66814e-05
0.42,-5.76131e-05
0.425,-5.95929e-05
0.43,-6.1873e-05
0.435,-6.35227e-05
0.44,-6.39438e-05
0.445,-6.30635e-05
0.45,-6.12312e-05
0.455,-5.89624e-05
0.46,-5.66757e-05
0.465,-5.45941e-05
0.47,-5.29333e-05
0.475,-5.19592e-05
0.48,-5.17536e-05
0.485,-5.20609e-05
0.49,-5.25944e-05
0.495,-5.34281e-05
0.5,-5.49392e-05
0.505,-5.72865e-05
0.51,-6.00083e-05
0.515,-6.2178e-05
0.52,-6.31972e-05
0.525,-6.33271e-05
0.53,-6.31938e-05
0.535,-6.30666e-05
0.54,-6.30656e-05
0.545,-6.3578e-05
0.55,-6.49073e-05
0.555,-6.67041e-05
0.56,-6.80604e-05
0.565,-6.80343e-05
0.57,-6.61854e-05
0.575,-6.27588e-05
0.58,-5.83659e-05
0.585,-5.34712e-05
0.59,-4.82816e-05
0.595,-4.31434e-05
0.6,-3.88636e-05
0.605,-3.63274e-05
0.61,-3.59329e-05
0.615,-3.75089e-05
0.62,-4.05846e-05
0.625,-4.4691e-05
0.63,-4.95433e-05
0.635,-5.47359e-05
0.64,-5.94281e-05
0.645,-6.27682e-05
0.65,-6.4563e-05
0.655,-6.53138e-05
0.66,-6.58762e-05
0.665,-6.69953e-05
0.67,-6.87028e-05
0.675,-7.02102e-05
0.68,-7.07094e-05
0.685,-6.9987e-05
0.69,-6.81667e-05
0.695,-6.53845e-05
0.7,-6.21271e-05
0.705,-5.95571e-05
0.71,-5.89183e-05
0.715,-6.05271e-05
0.72,-6.39796e-05
0.725,-6.93232e-05
0.73,-7.70914e-05
0.735,-8.68984e-05
0.74,-9.67948e-05
0.745,-0.000104636
0.75,-0.000109973
0.755,-0.000114116
0.76,-0.000118421
0.765,-0.000122998
0.77,-0.000126954
0.775,-0.000129128
0.78,-0.000128575
0.785,-0.000124697
0.79,-0.000116997
0.795,-0.000104983
0.8,-8.87619e-05
0.805,-6.96715e-05
0.81,-5.01745e-05
0.815,-3.31191e-05
0.82,-2.11467e-05
0.825,-1.62883e-05
0.83,-1.91468e-05
0.835,-2.79732e-05
0.84,-3.8968e-05
0.845,-4.82893e-05
0.85,-5.43761e-05
0.855,-5.81944e-05
0.86,-6.14089e-05
0.865,-6.52092e-05
0.87,-7.06965e-05
0.875,-7.89904e-05
0.88,-9.05223e-05
0.885,-0.000104104
0.89,-0.000116441
0.895,-0.000123658
0.9,-0.000124254
0.905,-0.00011989
0.91,-0.000113452
0.915,-0.000107193
0.92,-0.000102296
0.925,-9.8915e-05
0.93,-9.62184e-05
0.935,-9.29243e-05
0.94,-8.80643e-05
0.945,-8.11261e-05
0.95,-7.21272e-05
0.955,-6.19763e-05
0.96,-5.22889e-05
0.965,-4.44999e-05
0.97,-3.94992e-05
0.975,-3.84492e-05
0.98,-4.32474e-05
0.985,-5.51956e-05
0.99,-7.31527e-05
0.995,-9.29622e-05
1,-0.000108855
1.005,-0.000116287
1.01,-0.000113968
1.015,-0.000103256
1.02,-8.62297e-05
1.025,-6.47221e-05
1.03,-4.13913e-05
1.035,-2.13593e-05
1.04,-1.07502e-05
1.045,-1.24412e-05
1.05,-2.40859e-05
1.055,-3.99555e-05
1.06,-5.38825e-05
1.065,-6.14179e-05
1.07,-6.0759e-05
1.075,-5.31789e-05
1.08,-4.35837e-05
1.085,-3.90546e-05
1.09,-4.48769e-05
1.095,-6.26827e-05
1.1,-9.23041e-05
1.105,-0.000132563
1.11,-0.000179568
1.115,-0.000225799
1.12,-0.000261405
1.125,-0.000277083
1.13,-0.000267419
1.135,-0.000233457
1.14,-0.000183535
1.145,-0.000130542
1.15,-8.64218e-05
1.155,-5.90696e-05
1.16,-5.27044e-05
1.165,-6.74461e-05
1.17,-9.79686e-05
1.175,-0.00013436
1.18,-0.000165327
1.185,-0.000181682
1.19,-0.000177792
1.195,-0.000152114
1.2,-0.000109999
1.205,-6.46082e-05
1.21,-3.06862e-05
1.215,-1.71118e-05
1.22,-2.5811e-05
1.225,-5.4566e-05
1.23,-9.90023e-05
1.235,-0.000152929
1.24,-0.000207897
1.245,-0.000254211
1.25,-0.000284183
1.255,-0.000294733
1.26,-0.000286812
1.265,-0.00026346
1.27,-0.000229709
1.275,-0.000193226
1.28,-0.000161961
1.285,-0.000139697
1.29,-0.000124982
1.295,-0.000114885
1.3,-0.000108863
1.305,-0.000108621
1.31,-0.000114996
1.315,-0.000126355
1.32,-0.000140611
1.325,-0.000158554
1.33,-0.000184243
1.335,-0.000220043
1.34,-0.000261342
1.345,-0.000297655
1.35,-0.000318432
1.355,-0.000316681
1.36,-0.00028784
1.365,-0.000228654
1.37,-0.000140948
1.375,-3.68978e-05
1.38,6.27127e-05
1.385,0.000138519
1.39,0.000181277
1.395,0.000192919
1.4,0.000182947
1.405,0.000163268
1.41,0.000143554
1.415,0.000129143
1.42,0.000120116
1.425,0.00011097
1.43,9.36429e-05
1.435,6.21758e-05
1.44,1.36028e-05
1.445,-5.25616e-05
1.45,-0.000131862
1.455,-0.000212905
1.46,-0.000278897
1.465,-0.000311993
1.47,-0.000299453
1.475,-0.000238922
1.48,-0.000140704
1.485,-2.6409e-05
1.49,7.70444e-05
1.495,0.000145251
1.5,0.000160046
1.505,0.000110568
1.51,-2.52985e-06
1.515,-0.000163272
1.52,-0.000343907
1.525,-0.000513475
1.53,-0.000645793
1.535,-0.000724707
1.54,-0.00074717
1.545,-0.000724975
1.55,-0.000681781
1.555,-0.000642816
1.56,-0.00062333
1.565,-0.000623941
1.57,-0.000634337
1.575,-0.00064039
1.58,-0.000627893
1.585,-0.000582377
1.59,-0.000492226
1.595,-0.000358099
1.6,-0.000198713
1.605,-4.30059e-05
1.61,8.33377e-05
1.615,0.000164746
1.62,0.000197801
1.625,0.000191178
1.63,0.000159213
1.635,0.000112496
1.64,5.54419e-05
1.645,-8.0083e-06
1.65,-6.88329e-05
1.655,-0.000114705
1.66,-0.000139395
1.665,-0.000150876
1.67,-0.000166758
1.675,-0.000199898
1.68,-0.00024955
1.685,-0.000304148
1.69,-0.000347736
1.695,-0.000364055
1.7,-0.000341892
1.705,-0.000283604
1.71,-0.000207988
1.715,-0.000139995
1.72,-9.50405e-05
1.725,-7.25642e-05
1.73,-6.40967e-05
1.735,-6.75732e-05
1.74,-9.44309e-05
1.745,-0.000161943
1.75,-0.000276778
1.755,-0.000425302
1.76,-0.000579731
1.765,-0.000713259
1.77,-0.000811313
1.775,-0.00087254
1.78,-0.000900637
1.785,-0.000895378
1.79,-0.000854353
1.795,-0.000783736
1.8,-0.000701493
1.805,-0.00062676
1.81,-0.000568735
1.815,-0.000525289
1.82,-0.000487122
1.825,-0.000442998
1.83,-0.00038546
1.835,-0.000313026
1.84,-0.000227322
1.845,-0.000130049
1.85,-2.41543e-05
1.855,8.03682e-05
1.86,0.0001626
1.865,0.000195907
1.87,0.000159843
1.875,5.30951e-05
1.88,-0.000100043
1.885,-0.000259296
1.89,-0.000387698
1.895,-0.000461701
1.9,-0.000468739
1.905,-0.00040326
1.91,-0.000268343
1.915,-8.24927e-05
1.92,0.000116519
1.925,0.000280099
1.93,0.000367274
1.935,0.000362486
1.94,0.00028367
1.945,0.00017308
1.95,7.43535e-05
1.955,1.69313e-05
1.96,1.73599e-05
1.965,8.24987e-05
1.97,0.000207196
1.975,0.000373217
1.98,0.00054997
1.985,0.000697416
1.99,0.0007757
1.995,0.000759181
2,0.000647461
2.005,0.000464881
2.01,0.000246757
2.015,2.46547e-05
2.02,-0.000178773
2.025,-0.000347214
2.03,-0.000467263
2.035,-0.000530447
2.04,-0.000539748
2.045,-0.000510572
2.05,-0.000466322
2.055,-0.000434411
2.06,-0.000434146
2.065,-0.000461322
2.07,-0.000492809
2.075,-0.00050737
2.08,-0.000498489
2.085,-0.000472239
2.09,-0.000437815
2.095,-0.000399838
2.1,-0.000359527
2.105,-0.000322376
2.11,-0.00030146
2.115,-0.000309983
2.12,-0.000350102
2.125,-0.000411456
2.13,-0.000479145
2.135,-0.000536287
2.14,-0.000559549
2.145,-0.000523444
2.15,-0.000415766
2.155,-0.000248269
2.16,-5.13392e-05
2.165,0.000145075
2.17,0.000327865
2.175,0.000494195
2.18,0.000628215
2.185,0.000695032
2.19,0.000667459
2.195,0.000557603
2.2,0.000414133
2.205,0.000283825
2.21,0.000179662
2.215,8.69536e-05
2.22,-9.64124e-06
2.225,-0.000110068
2.23,-0.000200536
2.235,-0.000262019
2.24,-0.00028034
2.245,-0.000256229
2.25,-0.000206003
2.255,-0.000148239
2.26,-8.95719e-05
2.265,-2.62021e-05
2.27,3.87161e-05
2.275,8.12046e-05
2.28,6.93194e-05
2.285,-1.24464e-06
2.29,-9.07342e-05
2.295,-0.000144774
2.3,-0.000135961
2.305,-7.33947e-05
2.31,1.9196e-05
2.315,0.000126712
2.32,0.000245853
2.325,0.000373824
2.33,0.000499503
2.335,0.000602684
2.34,0.00066064
2.345,0.000658766
2.35,0.00059716
2.355,0.000490941
2.36,0.000365966
2.365,0.000248442
2.37,0.000152863
2.375,7.75911e-05
2.38,1.24725e-05
2.385,-4.73935e-05
2.39,-9.82378e-05
2.395,-0.000140671
2.4,-0.000190535
2.405,-0.000270873
2.41,-0.000393436
2.415,-0.000547017
2.42,-0.000702431
2.425,-0.000832462
2.43,-0.000928543
2.435,-0.000996936
2.44,-0.00104289
2.445,-0.00106327
2.45,-0.00105271
2.455,-0.00101223
2.46,-0.000950552
2.465,-0.000881467
2.47,-0.000821137
2.475,-0.000782072
2.48,-0.000765309
2.485,-0.000756457
2.49,-0.000731093
2.495,-0.000670241
2.5,-0.000571131
2.505,-0.000439893
2.51,-0.000279506
2.515,-9.18633e-05
2.52,0.00011141
2.525,0.00030499
2.53,0.000458419
2.535,0.000551668
2.54,0.000584388
2.545,0.000571824
2.55,0.00053431
2.555,0.000489019
2.56,0.000448286
2.565,0.000423849
2.57,0.000428143
2.575,0.000467771
2.58,0.000535503
2.585,0.000609665
2.59,0.00066398
2.595,0.000677799
2.6,0.000637295
2.605,0.000535303
2.61,0.000378011
2.615,0.000190092
2.62,7.32573e-06
2.625,-0.000138168
2.63,-0.00022954
2.635,-0.000270083
2.64,-0.000278629
2.645,-0.000278089
2.65,-0.00028725
2.655,-0.000317949
2.66,-0.000373838
2.665,-0.000451125
2.67,-0.000540326
2.675,-0.000627605
2.68,-0.000695997
2.685,-0.000726818
2.69,-0.000703129
2.695,-0.000614887
2.7,-0.000464539
2.705,-0.000271207
2.71,-6.61556e-05
2.715,0.000120894
2.72,0.00027075
2.725,0.00037331
2.73,0.000425781
2.735,0.000434905
2.74,0.000418575
2.745,0.000403686
2.75,0.000419044
2.755,0.000485068
2.76,0.000605708
2.765,0.000767621
2.77,0.000948112
2.775,0.00112776
2.78,0.00129674
2.785,0.00145032
2.79,0.00158402
2.795,0.00169586
2.8,0.00179019
2.805,0.00187695
2.81,0.00196745
2.815,0.00207158
2.82,0.00219648
2.825,0.00234267
2.83,0.00249905
2.835,0.00264343
2.84,0.0027505
2.845,0.00280252
2.85,0.00279901
2.855,0.00276131
2.86,0.00272592
2.865,0.0027311
2.87,0.00280612
2.875,0.00296446
2.88,0.00320266
2.885,0.00350432
2.89,0.00384169
2.895,0.00417733
2.9,0.00447021
2.905,0.00467958
2.91,0.00476727
2.915,0.00471127
2.92,0.00452226
2.925,0.00423792
2.93,0.0039019
2.935,0.00355295
2.94,0.00322684
2.945,0.00295602
2.95,0.00275962
2.955,0.00263424
2.96,0.00255714
2.965,0.00249497
2.97,0.00240991
2.975,0.00226848
2.98,0.00205094
2.985,0.00175258
2.99,0.00138103
2.995,0.000953252
3,0.000489589
3.005,9.55076e-06
3.01,-0.000468787
3.015,-0.000930833
3.02,-0.00136854
3.025,-0.00178132
3.03,-0.0021752
3.035,-0.00255795
3.04,-0.00293078
3.045,-0.00328441
3.05,-0.00360441
3.055,-0.00387909
3.06,-0.00410244
3.065,-0.00427179
3.07,-0.00438401
3.075,-0.00443574
3.08,-0.00442797
3.085,-0.00436858
3.09,-0.00426932
3.095,-0.00414141
3.1,-0.00399384
3.105,-0.00383331
3.11,-0.00366236
3.115,-0.00347755
3.12,-0.00327252
3.125,-0.00304318
3.13,-0.00278805
3.135,-0.00250427
3.14,-0.00218473
3.145,-0.00182175
3.15,-0.00141437
3.155,-0.000969604
3.16,-0.000493577
3.165,1.64983e-05
3.17,0.000568718
3.175,0.00116586
3.18,0.00180046
3.185,0.00246085
3.19,0.0031381
3.195,0.00382459
3.2,0.00451058
3.205,0.00518759
3.21,0.00585381
3.215,0.00651208
3.22,0.00716373
3.225,0.00780722
3.23,0.00844204
3.235,0.00906957
3.24,0.0096884
3.245,0.0102936
3.25,0.0108827
3.255,0.0114561
3.26,0.0120112
3.265,0.0125437
3.27,0.0130534
3.275,0.013542
3.28,0.0140041
3.285,0.0144229
3.29,0.0147747
3.295,0.0150334
3.3,0.0151736
3.305,0.0151716
3.31,0.0150059
3.315,0.0146637
3.32,0.0141492
3.325,0.013484
3.33,0.0126949
3.335,0.0117984
3.34,0.0107996
3.345,0.00970146
3.35,0.00850992
3.355,0.00723254
3.36,0.00587863
3.365,0.00446079
3.37,0.00299264
3.375,0.00148462
3.38,-5.66115e-05
3.385,-0.00162478
3.39,-0.00321121
3.395,-0.00480489
3.4,-0.00639405
3.405,-0.00796789
3.41,-0.00951867
3.415,-0.0110441
3.42,-0.0125477
3.425,-0.0140322
3.43,-0.0154914
3.435,-0.0169033
3.44,-0.0182289
3.445,-0.0194126
3.45,-0.0203861
3.455,-0.0210777
3.46,-0.0214279
3.465,-0.0214043
3.47,-0.0210156
3.475,-0.0203216
3.48,-0.0194146
3.485,-0.0183687
3.49,-0.0172171
3.495,-0.0159848
3.5,-0.0147237
3.505,-0.0135072
3.51,-0.012399
3.515,-0.0114285
3.52,-0.0105854
3.525,-0.00983112
3.53,-0.00911439
3.535,-0.0083869
3.54,-0.00761672
3.545,-0.00679461
3.55,-0.00592943
3.555,-0.00503666
3.56,-0.00412947
3.565,-0.00321967
3.57,-0.00232409
3.575,-0.00146736
3.58,-0.00067967
3.585,9.78618e-06
3.59,0.000581293
3.595,0.00102655
3.6,0.00134278
3.605,0.00153154
3.61,0.00160661
3.615,0.00159827
3.62,0.00154483
3.625,0.00147944
3.63,0.00142462
3.635,0.00139568
3.64,0.00140813
3.645,0.00148666
3.65,0.00166882
3.655,0.00199286
3.66,0.00247559
3.665,0.00310279
3.67,0.00383917
3.675,0.00464587
3.68,0.00549304
3.685,0.00636308
3.69,0.0072468
3.695,0.00813756
3.7,0.00902707
3.705,0.00990337
3.71,0.0107508
3.715,0.011553
3.72,0.0122965
3.725,0.0129706
3.73,0.0135632
3.735,0.0140564
3.74,0.0144256
3.745,0.0146456
3.75,0.0146969
3.755,0.0145671
3.76,0.01425
3.765,0.0137458
3.77,0.0130641
3.775,0.0122269
3.78,0.0112636
3.785,0.0102017
3.79,0.00906204
3.795,0.00786104
3.8,0.00661524
3.805,0.00534437
3.81,0.00407263
3.815,0.00282576
3.82,0.00162593
3.825,0.000488642
3.83,-0.000576624
3.835,-0.00156267
3.84,-0.00246121
3.845,-0.00325986
3.85,-0.00393886
3.855,-0.00447263
3.86,-0.00483998
3.865,-0.00503746
3.87,-0.00508569
3.875,-0.00502224
3.88,-0.00488398
3.885,-0.00469137
3.89,-0.0044454
3.895,-0.00413871
3.9,-0.00377187
3.905,-0.00335948
3.91,-0.00291992
3.915,-0.00246303
3.92,-0.00198876
3.925,-0.00149203
3.93,-0.000968181
3.935,-0.000418867
3.94,0.000146054
3.945,0.000712457
3.95,0.00126484
3.955,0.00178669
3.96,0.00226212
3.965,0.00267771
3.97,0.00302285
3.975,0.00328854
3.98,0.00346456
3.985,0.00353789
3.99,0.00349805
3.995,0.00334605
4,0.00309562
4.005,0.00276597
4.01,0.00237558
4.015,0.00194151
4.02,0.00148138
4.025,0.00101385
4.03,0.000554748
4.035,0.000111218
4.04,-0.000318873
4.045,-0.000741701
4.05,-0.0011647
4.055,-0.00159668
4.06,-0.00204483
4.065,-0.00251218
4.07,-0.00299853
4.075,-0.00350215
4.08,-0.00402079
4.085,-0.00455162
4.09,-0.00509167
4.095,-0.0056384
4.1,-0.00618796
4.105,-0.00673197
4.11,-0.00725678
4.115,-0.00774513
4.12,-0.00817744
4.125,-0.00853302
4.13,-0.00879283
4.135,-0.00894281
4.14,-0.00898165
4.145,-0.00893031
4.15,-0.00882713
4.155,-0.0087079
4.16,-0.00859241
4.165,-0.00848778
4.17,-0.00839749
4.175,-0.00832421
4.18,-0.00826637
4.185,-0.00821654
4.19,-0.00816434
4.195,-0.00810048
4.2,-0.00801794
4.205,-0.00790917
4.21,-0.00776469
4.215,-0.00757687
4.22,-0.00734524
4.225,-0.00707662
4.23,-0.00678077
4.235,-0.00646685
4.24,-0.00614276
4.245,-0.00581516
4.25,-0.0054892
4.255,-0.00516951
4.26,-0.00486394
4.265,-0.00458463
4.27,-0.00434206
4.275,-0.00413986
4.28,-0.00397468
4.285,-0.00383508
4.29,-0.00369779
4.295,-0.00352873
4.3,-0.00329378
4.305,-0.00297715
4.31,-0.00259429
4.315,-0.00218034
4.32,-0.00176113
4.325,-0.00134093
4.33,-0.000916976
4.335,-0.000494865
4.34,-8.73864e-05
4.345,0.000294946
4.35,0.000648677
4.355,0.000976909
4.36,0.00128937
4.365,0.00159996
4.37,0.00191892
4.375,0.00224792
4.38,0.00258204
4.385,0.00291473
4.39,0.0032441
4.395,0.00357814
4.4,0.00393179
4.405,0.00431614
4.41,0.00473128
4.415,0.00517001
4.42,0.00562441
4.425,0.00608322
4.43,0.00652269
4.435,0.00690498
4.44,0.00719275
4.445,0.0073697
4.45,0.00744378
4.455,0.00743019
4.46,0.00733677
4.465,0.00716532
4.47,0.00692234
4.475,0.00662593
4.48,0.00630069
4.485,0.00596887
4.49,0.00564835
4.495,0.00535444
4.5,0.00510063
4.505,0.00489743
4.51,0.00475023
4.515,0.00465896
4.52,0.00461713
4.525,0.00460959
4.53,0.00461503
4.535,0.00461061
4.54,0.00457406
4.545,0.0044876
4.55,0.00434286
4.555,0.00414007
4.56,0.00388487
4.565,0.00358804
4.57,0.00326796
4.575,0.00295167
4.58,0.0026701
4.585,0.00244935
4.59,0.00230406
4.595,0.00223708
4.6,0.0022436
4.605,0.00231462
4.61,0.00243502
4.615,0.00258051
4.62,0.00272002
4.625,0.0028216
4.63,0.00285917
4.635,0.0028161
4.64,0.0026828
4.645,0.00245425
4.65,0.00212992
4.655,0.00171403
4.66,0.00121818
4.665,0.000662043
4.67,6.81038e-05
4.675,-0.000542604
4.68,-0.00114944
4.685,-0.00173127
4.69,-0.00227036
4.695,-0.0027559
4.7,-0.00318398
4.705,-0.00355761
4.71,-0.00388692
4.715,-0.00418581
4.72,-0.00446805
4.725,-0.0047456
4.73,-0.00502656
4.735,-0.00531268
4.74,-0.00559944
4.745,-0.00587942
4.75,-0.00614603
4.755,-0.00639378
4.76,-0.00661436
4.765,-0.00679326
4.77,-0.00691027
4.775,-0.00694389
4.78,-0.00687855
4.785,-0.00670943
4.79,-0.00644023
4.795,-0.00607871
4.8,-0.00563737
4.805,-0.00513912
4.81,-0.00462041
4.815,-0.00412392
4.82,-0.00368687
4.825,-0.00333541
4.83,-0.00308227
4.835,-0.00292684
4.84,-0.00286444
4.845,-0.00289411
4.85,-0.00301413
4.855,-0.00321344
4.86,-0.00346974
4.865,-0.00375556
4.87,-0.00404444
4.875,-0.00431212
4.88,-0.00453721
4.885,-0.00470378
4.89,-0.00480402
4.895,-0.00483976
4.9,-0.00482014
4.905,-0.0047571
4.91,-0.00466584
4.915,-0.00456684
4.92,-0.00447871
4.925,-0.00440435
4.93,-0.0043243
4.935,-0.00420854
4.94,-0.00404032
4.945,-0.00382765
4.95,-0.00358922
4.955,-0.00333215
4.96,-0.00304539
4.965,-0.00271185
4.97,-0.00232444
4.975,-0.00189159
4.98,-0.00142897
4.985,-0.00094596
4.99,-0.000440315
4.995,9.62419e-05
5,0.000670228
5.005,0.00128272
5.01,0.00192966
5.015,0.00260296
5.02,0.00329183
5.025,0.00398598
5.03,0.00467664
5.035,0.0053524
5.04,0.00599508
5.045,0.00658261
5.05,0.00709864
5.055,0.00753895
5.06,0.00790716
5.065,0.00820578
5.07,0.00843077
5.075,0.00857172
5.08,0.00861642
5.085,0.00855827
5.09,0.00840152
5.095,0.0081577
5.1,0.00783847
5.105,0.00745355
5.11,0.00701227
5.115,0.00652463
5.12,0.00600281
5.125,0.00546373
5.13,0.00492619
5.135,0.00440327
5.14,0.00390151
5.145,0.00342824
5.15,0.00299573
5.155,0.00261678
5.16,0.00229831
5.165,0.00203867
5.17,0.00182483
5.175,0.00162932
5.18,0.00141464
5.185,0.00114464
5.19,0.000796583
5.195,0.000370633
5.2,-0.000113876
5.205,-0.000637524
5.21,-0.00119064
5.215,-0.00176288
5.22,-0.00233063
5.225,-0.00285581
5.23,-0.00329575
5.235,-0.00361583
5.24,-0.00379609
5.245,-0.00383107
5.25,-0.00373102
5.255,-0.00352486
5.26,-0.00325579
5.265,-0.00297051
5.27,-0.00271121
5.275,-0.00251036
5.28,-0.00238687
5.285,-0.00235011
5.29,-0.00240666
5.295,-0.00255661
5.3,-0.00278884
5.305,-0.00308424
5.31,-0.00341747
5.315,-0.00375611
5.32,-0.00406398
5.325,-0.00430794
5.33,-0.00446486
5.335,-0.00452548
5.34,-0.00449393
5.345,-0.00438311
5.35,-0.00420959
5.355,-0.00399191
5.36,-0.00374927
5.365,-0.0034975
5.37,-0.00324713
5.375,-0.00300456
5.38,-0.00277112
5.385,-0.00254166
5.39,-0.0023061
5.395,-0.00205069
5.4,-0.00175798
5.405,-0.00141074
5.41,-0.00100085
5.415,-0.000535628
5.42,-3.52045e-05
5.425,0.000474321
5.43,0.000968052
5.435,0.00143103
5.44,0.00185928
5.445,0.00224918
5.45,0.00259042
5.455,0.00287005
5.46,0.00307852
5.465,0.00321296
5.47,0.00328017
5.475,0.00329678
5.48,0.00328271
5.485,0.00325294
5.49,0.00321474
5.495,0.00317116
5.5,0.00312781
5.505,0.00309469
5.51,0.00307909
5.515,0.00307971
5.52,0.00308997
5.525,0.00310321
5.53,0.00311085
5.535,0.00309859
5.54,0.00304933
5.545,0.00294876
5.55,0.00278863
5.555,0.00257025
5.56,0.00230647
5.565,0.00201831
5.57,0.00172747
5.575,0.00145162
5.58,0.00120697
5.585,0.00101311
5.59,0.00089195
5.595,0.000859735
5.6,0.000920315
5.605,0.00106655
5.61,0.00128284
5.615,0.00154612
5.62,0.00182925
5.625,0.00210264
5.63,0.0023351
5.635,0.00249965
5.64,0.00257886
5.645,0.00256422
5.65,0.00245232
5.655,0.00224347
5.66,0.00194339
5.665,0.0015626
5.67,0.0011125
5.675,0.000605137
5.68,5.57789e-05
5.685,-0.000517279
5.69,-0.0010962
5.695,-0.00166658
5.7,-0.00221616
5.705,-0.00273215
5.71,-0.00320403
5.715,-0.00362968
5.72,-0.00401553
5.725,-0.00437042
5.73,-0.0047027
5.735,-0.00502216
5.74,-0.00533867
5.745,-0.00565564
5.75,-0.00596763
5.755,-0.00626644
5.76,-0.00654843
5.765,-0.0068132
5.77,-0.00705585
5.775,-0.00726373
5.78,-0.00742153
5.785,-0.00751762
5.79,-0.00754715
5.795,-0.00751196
5.8,-0.00741664
5.805,-0.00726318
5.81,-0.00704948
5.815,-0.00677264
5.82,-0.00643268
5.825,-0.00603145
5.83,-0.00556829
5.835,-0.00504047
5.84,-0.00444878
5.845,-0.00380102
5.85,-0.00311099
5.855,-0.00239631
5.86,-0.00167547
5.865,-0.00096373
5.87,-0.000271985
5.875,0.000390723
5.88,0.00101533
5.885,0.00159431
5.89,0.00212466
5.895,0.00260817
5.9,0.00304741
5.905,0.00344224
5.91,0.00379104
5.915,0.00409398
5.92,0.00435324
5.925,0.00457127
5.93,0.00475196
5.935,0.00490212
5.94,0.00502786
5.945,0.0051295
5.95,0.00520217
5.955,0.00524043
5.96,0.0052413
5.965,0.00520552
5.97,0.00513903
5.975,0.0050522
5.98,0.00495389
5.985,0.0048449
5.99,0.00471902
5.995,0.0045697
6,0.00439464
6.005,0.00419634
6.01,0.00397943
6.015,0.00374581
6.02,0.00349265
6.025,0.00321731
6.03,0.00292124
6.035,0.00260798
6.04,0.00228247
6.045,0.00195345
6.05,0.00163295
6.055,0.0013324
6.06,0.00105924
6.065,0.000817174
6.07,0.000608365
6.075,0.00043374
6.08,0.000292295
6.085,0.000182045
6.09,0.000100866
6.095,4.57789e-05
6.1,1.2093e-05
6.105,-6.3147e-06
6.11,-1.68659e-05
6.115,-2.99478e-05
6.12,-5.89899e-05
6.125,-0.000116436
6.13,-0.000208861
6.135,-0.000335357
6.14,-0.000490036
6.145,-0.000665499
6.15,-0.000853184
6.155,-0.00104165
6.16,-0.00121811
6.165,-0.00137278
6.17,-0.00150034
6.175,-0.00159743
6.18,-0.00166112
6.185,-0.00169024
6.19,-0.00168683
6.195,-0.00165645
6.2,-0.00160679
6.205,-0.0015432
6.21,-0.00146515
6.215,-0.00136915
6.22,-0.0012549
6.225,-0.00112673
6.23,-0.000990907
6.235,-0.000854497
6.24,-0.00072613
6.245,-0.000615343
6.25,-0.000530083
6.255,-0.00047419
6.26,-0.00044643
6.265,-0.000442138
6.27,-0.000455091
6.275,-0.000476311
6.28,-0.000493427
6.285,-0.000494079
6.29,-0.000469539
6.295,-0.000416137
6.3,-0.000336094
6.305,-0.000237224
6.31,-0.000130308
6.315,-2.57028e-05
6.32,6.89733e-05
6.325,0.000149837
6.33,0.000216976
6.335,0.000274167
6.34,0.000325946
6.345,0.000372579
6.35,0.000409777
6.355,0.000434288
6.36,0.000447022
6.365,0.000450889
6.37,0.000448031
6.375,0.000437685
6.38,0.000415542
6.385,0.000378307
6.39,0.000330045
6.395,0.000281752
6.4,0.000245427
6.405,0.000230801
6.41,0.000245356
6.415,0.000292976
6.42,0.000371688
6.425,0.000474628
6.43,0.000594128
6.435,0.000724415
6.44,0.000861331
6.445,0.00100231
6.45,0.00114772
6.455,0.00130133
6.46,0.00146819
6.465,0.00165099
6.47,0.00184739
6.475,0.00204972
6.48,0.0022477
6.485,0.00243264
6.49,0.00259982
6.495,0.00274677
6.5,0.00286974
6.505,0.00296263
6.51,0.00301949
6.515,0.00303772
6.52,0.00301955
6.525,0.00297126
6.53,0.00290077
6.535,0.00281587
6.54,0.00272246
6.545,0.00262268
6.55,0.00251531
6.555,0.00239776
6.56,0.00226774
6.565,0.00212425
6.57,0.00196709
6.575,0.0017946
6.58,0.00160285
6.585,0.00138804
6.59,0.00115015
6.595,0.000893616
6.6,0.000624364
6.605,0.000346734
6.61,6.38787e-05
6.615,-0.000220016
6.62,-0.000499344
6.625,-0.000768739
6.63,-0.00102416
6.635,-0.00126232
6.64,-0.00147992
6.645,-0.00167432
6.65,-0.00184552
6.655,-0.0019968
6.66,-0.00213236
6.665,-0.00225445
6.67,-0.00236441
6.675,-0.00246552
6.68,-0.0025622
6.685,-0.00265663
6.69,-0.00274716
6.695,-0.00282916
6.7,-0.00289792
6.705,-0.00295257
6.71,-0.00299682
6.715,-0.00303492
6.72,-0.00306773
6.725,-0.00309319
6.73,-0.00311008
6.735,-0.00311997
6.74,-0.00312549
6.745,-0.00312754
6.75,-0.0031248
6.755,-0.00311473
6.76,-0.00309366
6.765,-0.00305734
6.77,-0.00300317
6.775,-0.00293172
6.78,-0.00284557
6.785,-0.00274806
6.79,-0.00264336
6.795,-0.00253633
6.8,-0.00243151
6.805,-0.00233148
6.81,-0.00223532
6.815,-0.00213838
6.82,-0.0020329
6.825,-0.00190981
6.83,-0.00176314
6.835,-0.00159421
6.84,-0.00140987
6.845,-0.00121715
6.85,-0.00102097
6.855,-0.000826004
6.86,-0.000638182
6.865,-0.000463868
6.87,-0.000307798
6.875,-0.000171512
6.88,-5.34211e-05
6.885,5.11609e-05
6.89,0.000150023
6.895,0.000249932
6.9,0.00035045
6.905,0.000444175
6.91,0.000523303
6.915,0.000584676
6.92,0.000630164
6.925,0.000663859
6.93,0.000689624
6.935,0.000712092
6.94,0.00073877
6.945,0.000779264
6.95,0.000841846
6.955,0.000930794
6.96,0.00104629
6.965,0.00118521
6.97,0.00134171
6.975,0.00150786
6.98,0.00167409
6.985,0.00183098
6.99,0.0019723
6.995,0.00209486
7,0.00219618
7.005,0.00227491
7.01,0.00233255
7.015,0.00237355
7.02,0.00240484
7.025,0.00243539
7.03,0.00247279
7.035,0.00251889
7.04,0.00257029
7.045,0.00262247
7.05,0.00267248
7.055,0.00271859
7.06,0.00275818
7.065,0.00278698
7.07,0.002802
7.075,0.00280404
7.08,0.00279641
7.085,0.00278328
7.09,0.00276917
7.095,0.00275844
7.1,0.00275364
7.105,0.0027529
7.11,0.00275098
7.115,0.00274513
7.12,0.002737
7.125,0.00272801
7.13,0.00271683
7.135,0.00270212
7.14,0.00268468
7.145,0.00266656
7.15,0.00264913
7.155,0.00263222
7.16,0.00261355
7.165,0.00258853
7.17,0.00255204
7.175,0.0025014
7.18,0.0024372
7.185,0.00236133
7.19,0.00227514
7.195,0.00217988
7.2,0.00207819
7.205,0.00197422
7.21,0.00187241
7.215,0.00177454
7.22,0.00167735
7.225,0.00157558
7.23,0.00146687
7.235,0.00135075
7.24,0.00122458
7.245,0.00108392
7.25,0.000926411
7.255,0.000753755
7.26,0.000569995
7.265,0.000378302
7.27,0.000179786
7.275,-2.43822e-05
7.28,-0.00023123
7.285,-0.000437497
7.29,-0.000642147
7.295,-0.000846766
7.3,-0.00105426
7.305,-0.00126791
7.31,-0.00148973
7.315,-0.00171822
7.32,-0.00194861
7.325,-0.00217441
7.33,-0.00238853
7.335,-0.0025844
7.34,-0.00275654
7.345,-0.00290107
7.35,-0.00301611
7.355,-0.00310123
7.36,-0.00315713
7.365,-0.00318767
7.37,-0.00320208
7.375,-0.00321324
7.38,-0.00323301
7.385,-0.0032689
7.39,-0.00332362
7.395,-0.00339514
7.4,-0.00347774
7.405,-0.00356453
7.41,-0.00364793
7.415,-0.00372002
7.42,-0.00377564
7.425,-0.00381438
7.43,-0.00383864
7.435,-0.00384955
7.44,-0.00384389
7.445,-0.00381457
7.45,-0.00375391
7.455,-0.00365624
7.46,-0.00351811
7.465,-0.00333848
7.47,-0.00312048
7.475,-0.00287259
7.48,-0.0026082
7.485,-0.0023449
7.49,-0.00210216
7.495,-0.00189653
7.5,-0.00173747
7.505,-0.00162551
7.51,-0.00155457
7.515,-0.00151829
7.52,-0.00151263
7.525,-0.00153187
7.53,-0.00156484
7.535,-0.00159603
7.54,-0.00160949
7.545,-0.00159233
7.55,-0.0015372
7.555,-0.00144444
7.56,-0.00132163
7.565,-0.00117786
7.57,-0.00101884
7.575,-0.000849056
7.58,-0.000675577
7.585,-0.000508514
7.59,-0.000360245
7.595,-0.000244653
7.6,-0.000175165
7.605,-0.000161427
7.61,-0.000206809
7.615,-0.000308811
7.62,-0.00046022
7.625,-0.000648978
7.63,-0.00085909
7.635,-0.00107272
7.64,-0.00127088
7.645,-0.00143286
7.65,-0.00153685
7.655,-0.00156345
7.66,-0.0014998
7.665,-0.00134214
7.67,-0.00109798
7.675,-0.000784236
7.68,-0.000420451
7.685,-2.62862e-05
7.69,0.000377166
7.695,0.000769909
7.7,0.00113729
7.705,0.00147035
7.71,0.00176396
7.715,0.00201814
7.72,0.00224133
7.725,0.00244862
7.73,0.00265636
7.735,0.00287859
7.74,0.00312436
7.745,0.00339588
7.75,0.00368958
7.755,0.00399791
7.76,0.00430943
7.765,0.00460891
7.77,0.0048788
7.775,0.00510156
7.78,0.0052628
7.785,0.00535412
7.79,0.00537447
7.795,0.00532984
7.8,0.00523121
7.805,0.00509209
7.81,0.0049259
7.815,0.00474231
7.82,0.00454591
7.825,0.00433854
7.83,0.00412057
7.835,0.00388892
7.84,0.00363692
7.845,0.00335839
7.85,0.00305102
7.855,0.00271708
7.86,0.00236403
7.865,0.00200524
7.87,0.00165768
7.875,0.00133609
7.88,0.00104808
7.885,0.000794285
7.89,0.000571745
7.895,0.000375508
7.9,0.000199619
7.905,3.95452e-05
7.91,-0.000107077
7.915,-0.000242066
7.92,-0.000367927
7.925,-0.000487779
7.93,-0.000604009
7.935,-0.000717384
7.94,-0.00082867
7.945,-0.000940874
7.95,-0.00105925
7.955,-0.00118906
7.96,-0.00133281
7.965,-0.00148896
7.97,-0.00165228
7.975,-0.00181346
7.98,-0.00195869
7.985,-0.00207271
7.99,-0.00214465
7.995,-0.00217052
8,-0.00215138
8.005,-0.00209299
8.01,-0.00200615
8.015,-0.00190448
8.02,-0.00180243
8.025,-0.00171509
8.03,-0.00165742
8.035,-0.00164055
8.04,-0.00166718
8.045,-0.00173166
8.05,-0.00182206
8.055,-0.00191989
8.06,-0.00200312
8.065,-0.00205289
8.07,-0.00205767
8.075,-0.00201518
8.08,-0.00193158
8.085,-0.00181562
8.09,-0.00167308
8.095,-0.00150786
8.1,-0.00132491
8.105,-0.00112835
8.11,-0.000919046
8.115,-0.000697104
8.12,-0.000465382
8.125,-0.000228728
8.13,8.06377e-06
8.135,0.000239646
8.14,0.000458289
8.145,0.000653339
8.15,0.000813144
8.155,0.000928881
8.16,0.000997179
8.165,0.00102029
8.17,0.00100596
8.175,0.000967003
8.18,0.000918199
8.185,0.000872396
8.19,0.000839066
8.195,0.000823719
8.2,0.000827748
8.205,0.000850158
8.21,0.000888851
8.215,0.000939152
8.22,0.000991454
8.225,0.00103176
8.23,0.00104715
8.235,0.00103112
8.24,0.000983445
8.245,0.000906629
8.25,0.00080279
8.255,0.00067306
8.26,0.000520083
8.265,0.000349537
8.27,0.000168668
8.275,-1.55067e-05
8.28,-0.000195913
8.285,-0.000363301
8.29,-0.000505861
8.295,-0.00061263
8.3,-0.0006775
8.305,-0.000700854
8.31,-0.00068954
8.315,-0.000656524
8.32,-0.000618818
8.325,-0.00059219
8.33,-0.000585943
8.335,-0.000603132
8.34,-0.000644486
8.345,-0.000709188
8.35,-0.000792394
8.355,-0.000883998
8.36,-0.000969841
8.365,-0.00103486
8.37,-0.00106646
8.375,-0.00105653
8.38,-0.00100286
8.385,-0.000909359
8.39,-0.000785803
8.395,-0.000647288
8.4,-0.000511013
8.405,-0.000391892
8.41,-0.000299044
8.415,-0.000233685
8.42,-0.00019111
8.425,-0.000164272
8.43,-0.000144351
8.435,-0.000121018
8.44,-8.45377e-05
8.445,-2.71432e-05
8.45,5.61245e-05
8.455,0.000166203
8.46,0.000299346
8.465,0.000447312
8.47,0.000598531
8.475,0.000739657
8.48,0.000857255
8.485,0.000941206
8.49,0.000987634
8.495,0.000996298
8.5,0.000966427
8.505,0.000897923
8.51,0.000795045
8.515,0.000666633
8.52,0.000523365
8.525,0.000376304
8.53,0.000236742
8.535,0.000114655
8.54,1.66835e-05
8.545,-5.49461e-05
8.55,-0.000103101
8.555,-0.000135204
8.56,-0.000160925
8.565,-0.000189803
8.57,-0.000229986
8.575,-0.000287562
8.58,-0.000366654
8.585,-0.000469074
8.59,-0.000591752
8.595,-0.000724696
8.6,-0.000854084
8.605,-0.000968539
8.61,-0.00106151
8.615,-0.00112966
8.62,-0.00117276
8.625,-0.00119383
8.63,-0.00119613
8.635,-0.00118002
8.64,-0.00114378
8.645,-0.00108802
8.65,-0.00101841
8.655,-0.000943069
8.66,-0.000867779
8.665,-0.00079561
8.67,-0.000729812
8.675,-0.000673421
8.68,-0.000625514
8.685,-0.000580415
8.69,-0.00053176
8.695,-0.000476453
8.7,-0.000414194
8.705,-0.000344739
8.71,-0.000266748
8.715,-0.000178311
8.72,-7.80573e-05
8.725,3.37854e-05
8.73,0.000155337
8.735,0.000283115
8.74,0.000411269
8.745,0.000532529
8.75,0.000641361
8.755,0.000735819
8.76,0.000816527
8.765,0.000885005
8.77,0.000943586
8.775,0.000996073
8.78,0.00104679
8.785,0.00109872
8.79,0.00115426
8.795,0.00121806
8.8,0.00129711
8.805,0.00139683
8.81,0.00151763
8.815,0.00165583
8.82,0.00180554
8.825,0.00195875
8.83,0.00210634
8.835,0.00223988
8.84,0.00235174
8.845,0.00243575
8.85,0.0024887
8.855,0.00250981
8.86,0.00249938
8.865,0.00245909
8.87,0.00239277
8.875,0.00230616
8.88,0.00220644
8.885,0.00210213
8.89,0.00200196
8.895,0.00191358
8.9,0.00184347
8.905,0.00179625
8.91,0.00177443
8.915,0.0017793
8.92,0.00180879
8.925,0.00185469
8.93,0.00190533
8.935,0.00194909
8.94,0.00197524
8.945,0.00197488
8.95,0.00194172
8.955,0.00187108
8.96,0.00175983
8.965,0.00160882
8.97,0.0014245
8.975,0.00121596
8.98,0.00099129
8.985,0.00075757
8.99,0.000521052
8.995,0.000286528
9,5.90474e-05
9.005,-0.000153327
9.01,-0.000340591
9.015,-0.000496063
9.02,-0.000619961
9.025,-0.000717177
9.03,-0.000793307
9.035,-0.000853379
9.04,-0.000901759
9.045,-0.000942106
9.05,-0.00097773
9.055,-0.00101115
9.06,-0.001043
9.065,-0.00107228
9.07,-0.00109751
9.075,-0.00111721
9.08,-0.00112979
9.085,-0.0011338
9.09,-0.00112876
9.095,-0.00111543
9.1,-0.0010941
9.105,-0.00106327
9.11,-0.00102091
9.115,-0.00096606
9.12,-0.000898804
9.125,-0.000819574
9.13,-0.000728508
9.135,-0.000625528
9.14,-0.000510776
9.145,-0.000385465
9.15,-0.000253811
9.155,-0.000124107
9.16,-6.61977e-06
9.165,9.06796e-05
9.17,0.0001648
9.175,0.000216518
9.18,0.000247904
9.185,0.000261991
9.19,0.00026341
9.195,0.000257278
9.2,0.000247648
9.205,0.000238088
9.21,0.000232606
9.215,0.00023471
9.22,0.000246065
9.225,0.000265946
9.23,0.000291278
9.235,0.000318205
9.24,0.000345023
9.245,0.000374012
9.25,0.000409587
9.255,0.000453708
9.26,0.000505013
9.265,0.000563962
9.27,0.000635187
9.275,0.000722268
9.28,0.000823117
9.285,0.000932022
9.29,0.00104259
9.295,0.00114757
9.3,0.00124029
9.305,0.00131763
9.31,0.00137937
9.315,0.00142531
9.32,0.00145441
9.325,0.00146549
9.33,0.00145759
9.335,0.00143066
9.34,0.0013866
9.345,0.001329
9.35,0.00126104
9.355,0.00118286
9.36,0.00109157
9.365,0.000984953
9.37,0.000864095
9.375,0.000732188
9.38,0.000592605
9.385,0.000448324
9.39,0.000301021
9.395,0.00015007
9.4,-6.86598e-06
9.405,-0.000172187
9.41,-0.000346993
9.415,-0.000530694
9.42,-0.00072165
9.425,-0.000917709
9.43,-0.00111549
9.435,-0.00131002
9.44,-0.00149635
9.445,-0.00167012
9.45,-0.00182609
9.455,-0.00195934
9.46,-0.00206784
9.465,-0.00215165
9.47,-0.00221162
9.475,-0.00225058
9.48,-0.00227332
9.485,-0.00228324
9.49,-0.00227945
9.495,-0.00225794
9.5,-0.00221567
9.505,-0.00215284
9.51,-0.0020713
9.515,-0.0019728
9.52,-0.00186038
9.525,-0.00174022
9.53,-0.00161999
9.535,-0.00150604
9.54,-0.00140281
9.545,-0.00131312
9.55,-0.00123748
9.555,-0.00117401
9.56,-0.00111924
9.565,-0.00106844
9.57,-0.00101682
9.575,-0.00096165
9.58,-0.000902907
9.585,-0.000841617
9.59,-0.000778091
9.595,-0.000712
9.6,-0.000643556
9.605,-0.000574122
9.61,-0.000505765
9.615,-0.000439411
9.62,-0.000372644
9.625,-0.000300796
9.63,-0.000220953
9.635,-0.000133161
9.64,-3.79813e-05
9.645,6.4289e-05
9.65,0.000172362
9.655,0.00028411
9.66,0.000397458
9.665,0.000510874
9.67,0.000624195
9.675,0.000739014
9.68,0.000857928
9.685,0.000983412
9.69,0.00111698
9.695,0.00125897
9.7,0.00140949
9.705,0.00156902
9.71,0.00173564
9.715,0.00190189
9.72,0.00205596
9.725,0.00218665
9.73,0.00228768
9.735,0.00235777
9.74,0.00239749
9.745,0.00240764
9.75,0.00239043
9.755,0.00234978
9.76,0.00228959
9.765,0.00221336
9.77,0.00212534
9.775,0.00203016
9.78,0.0019305
9.785,0.00182591
9.79,0.00171336
9.795,0.00158786
9.8,0.00144389
9.805,0.00127777
9.81,0.0010892
9.815,0.000880146
9.82,0.000652928
9.825,0.000409682
9.83,0.000152705
9.835,-0.000115927
9.84,-0.000394523
9.845,-0.000679744
9.85,-0.000963856
9.855,-0.00123501
9.86,-0.00148131
9.865,-0.00169499
9.87,-0.00187303
9.875,-0.00201535
9.88,-0.00212359
9.885,-0.00220058
9.89,-0.00224975
9.895,-0.00227557
9.9,-0.00228422
9.905,-0.00228252
9.91,-0.00227562
9.915,-0.00226643
9.92,-0.00225675
9.925,-0.00224717
9.93,-0.00223542
9.935,-0.00221629
9.94,-0.0021843
9.945,-0.00213649
9.95,-0.00207356
9.955,-0.00199959
9.96,-0.00191955
9.965,-0.00183552
9.97,-0.00174544
9.975,-0.00164512
9.98,-0.0015315
9.985,-0.00140449
9.99,-0.00126649
9.995,-0.00112104
10,-0.000971739
10.005,-0.00082265
10.01,-0.000680174
10.015,-0.000553494
10.02,-0.000451015
10.025,-0.000376787
10.03,-0.00033087
10.035,-0.000310464
10.04,-0.00030895
10.045,-0.000315942
10.05,-0.000320173
10.055,-0.000313163
10.06,-0.000291888
10.065,-0.000258938
10.07,-0.000219979
10.075,-0.000180979
10.08,-0.000147203
10.085,-0.000123157
10.09,-0.000112279
10.095,-0.000116473
10.1,-0.000136177
10.105,-0.000171243
10.11,-0.00022162
10.115,-0.000286998
10.12,-0.000365887
10.125,-0.00045488
10.13,-0.000548568
10.135,-0.000639757
10.14,-0.000720758
10.145,-0.000785484
10.15,-0.000829826
10.155,-0.000851501
10.16,-0.000851158
10.165,-0.000832119
10.17,-0.000798257
10.175,-0.000752769
10.18,-0.000698732
10.185,-0.000640291
10.19,-0.000582744
10.195,-0.000530812
10.2,-0.00048706
10.205,-0.000452818
10.21,-0.000429763
10.215,-0.000418804
10.22,-0.0004178
10.225,-0.000421641
10.23,-0.000424317
10.235,-0.0004201
10.24,-0.000403721
10.245,-0.000370813
10.25,-0.000318408
10.255,-0.000245431
10.26,-0.0001534
10.265,-4.74545e-05
10.27,6.30772e-05
10.275,0.000165917
10.28,0.000249078
10.285,0.000304887
10.29,0.000331606
10.295,0.000331516
10.3,0.000308983
10.305,0.000270798
10.31,0.000226664
10.315,0.000187337
10.32,0.000160845
10.325,0.000149709
10.33,0.000151152
10.335,0.000159731
10.34,0.00017022
10.345,0.00017841
10.35,0.000180566
10.355,0.000174754
10.36,0.000162918
10.365,0.00014983
10.37,0.000140001
10.375,0.000136041
10.38,0.000138628
10.385,0.000146389
10.39,0.000155441
10.395,0.000160091
10.4,0.000155132
10.405,0.00013795
10.41,0.00010907
10.415,7.09856e-05
10.42,2.62985e-05
10.425,-2.26657e-05
10.43,-7.32305e-05
10.435,-0.000122765
10.44,-0.000169022
10.445,-0.00020938
10.45,-0.000240835
10.455,-0.000261329
10.46,-0.00027051
10.465,-0.000268983
10.47,-0.000257145
10.475,-0.000234674
10.48,-0.00020081
10.485,-0.000155432
10.49,-0.000100022
10.495,-3.71568e-05
10.5,2.99069e-05
10.505,9.63549e-05
10.51,0.000156467
10.515,0.000205955
10.52,0.00024247
10.525,0.000264446
10.53,0.000271032
10.535,0.000263004
10.54,0.000242641
10.545,0.000212292
10.55,0.000173583
10.555,0.000127673
10.56,7.52797e-05
10.565,1.77639e-05
10.57,-4.06133e-05
10.575,-9.25005e-05
10.58,-0.000129899
10.585,-0.000146481
10.59,-0.000138382
10.595,-0.000104632
10.6,-4.76635e-05
10.605,2.76807e-05
10.61,0.000115987
10.615,0.00021126
10.62,0.000306289
10.625,0.000394573
10.63,0.000473184
10.635,0.000543041
10.64,0.000607303
10.645,0.00067026
10.65,0.000736675
10.655,0.000810261
10.66,0.00089195
10.665,0.00098033
10.67,0.00107323
10.675,0.00116777
10.68,0.00125966
10.685,0.00134349
10.69,0.00141444
10.695,0.00146936
10.7,0.00150582
10.705,0.00152094
10.71,0.00151178
10.715,0.00147628
10.72,0.00141291
10.725,0.00132132
10.73,0.00120492
10.735,0.00107089
10.74,0.000926115
10.745,0.000774969
10.75,0.000620711
10.755,0.000466288
10.76,0.000314335
10.765,0.000166898
10.77,2.40008e-05
10.775,-0.000116491
10.78,-0.000255922
10.785,-0.000392945
10.79,-0.000525548
10.795,-0.000652887
10.8,-0.000773787
10.805,-0.000884964
10.81,-0.000981434
10.815,-0.00105716
10.82,-0.00110521
10.825,-0.0011192
10.83,-0.00109499
10.835,-0.00103107
10.84,-0.000928179
10.845,-0.000788768
10.85,-0.000616894
10.855,-0.000419048
10.86,-0.000204545
10.865,1.5223e-05
10.87,0.000228739
10.875,0.000426948
10.88,0.00060423
10.885,0.000757024
10.89,0.000882564
10.895,0.00097892
10.9,0.00104518
10.905,0.0010816
10.91,0.00108986
10.915,0.00107292
10.92,0.00103503
10.925,0.000981573
10.93,0.000918288
10.935,0.000851024
10.94,0.000786218
10.945,0.000729908
10.95,0.000684996
10.955,0.000650158
10.96,0.000621491
10.965,0.000593992
10.97,0.000561201
10.975,0.000515173
10.98,0.00044932
10.985,0.000361993
10.99,0.000257169
10.995,0.000142649
11,2.79871e-05
11.005,-7.70556e-05
11.01,-0.000164118
11.015,-0.000228052
11.02,-0.000267757
11.025,-0.000285632
11.03,-0.00028677
11.035,-0.000278314
11.04,-0.000267742
11.045,-0.000260404
11.05,-0.000258977
11.055,-0.000264824
11.06,-0.000278627
11.065,-0.000300448
11.07,-0.000330785
11.075,-0.00037159
11.08,-0.000425711
11.085,-0.000495212
11.09,-0.000579863
11.095,-0.000676039
11.1,-0.000776508
11.105,-0.000872744
11.11,-0.000958322
11.115,-0.00102941
11.12,-0.00108293
11.125,-0.00111632
11.13,-0.0011289
11.135,-0.00112322
11.14,-0.00110597
11.145,-0.00108691
11.15,-0.00107452
11.155,-0.0010722
11.16,-0.00107846
11.165,-0.00108927
11.17,-0.0010996
11.175,-0.0011031
11.18,-0.00109164
11.185,-0.00105641
11.19,-0.000990412
11.195,-0.000890504
11.2,-0.000757428
11.205,-0.000594515
11.21,-0.000407561
11.215,-0.000204545
11.22,6.6731e-06
11.225,0.000219409
11.23,0.000427011
11.235,0.000622983
11.24,0.00080204
11.245,0.000959715
11.25,0.00109152
11.255,0.00119399
11.26,0.00126646
11.265,0.00131072
11.27,0.00132914
11.275,0.00132441
11.28,0.00130083
11.285,0.00126484
11.29,0.00122375
11.295,0.00118385
11.3,0.00114928
11.305,0.00112153
11.31,0.00109943
11.315,0.00108011
11.32,0.00105974
11.325,0.00103378
11.33,0.000998228
11.335,0.000950456
11.34,0.000888736
11.345,0.000812418
11.35,0.000723471
11.355,0.000627346
11.36,0.000530792
11.365,0.000438462
11.37,0.00035208
11.375,0.000272253
11.38,0.000200198
11.385,0.000137788
11.39,8.71564e-05
11.395,5.10997e-05
11.4,3.24751e-05
11.405,3.21554e-05
11.41,4.84583e-05
11.415,7.85437e-05
11.42,0.000118947
11.425,0.000163865
11.43,0.000204354
11.435,0.000231634
11.44,0.000240639
11.445,0.000229821
11.45,0.000200187
11.455,0.000155025
11.46,9.85718e-05
11.465,3.47141e-05
11.47,-3.3482e-05
11.475,-0.000104226
11.48,-0.000176861
11.485,-0.000251071
11.49,-0.000327219
11.495,-0.000407961
11.5,-0.000497818
11.505,-0.000599542
11.51,-0.00071111
11.515,-0.000826009
11.52,-0.000935074
11.525,-0.00102822
11.53,-0.00109717
11.535,-0.00113859
11.54,-0.00115357
11.545,-0.00114437
11.55,-0.00111359
11.555,-0.00106612
11.56,-0.00100973
11.565,-0.000953188
11.57,-0.000903546
11.575,-0.000864372
11.58,-0.000835649
11.585,-0.000814254
11.59,-0.000793902
11.595,-0.000765983
11.6,-0.000722676
11.605,-0.000659655
11.61,-0.000576068
11.615,-0.000473452
11.62,-0.00035484
11.625,-0.000224193
11.63,-8.67625e-05
11.635,5.11276e-05
11.64,0.000184338
11.645,0.000309999
11.65,0.000425182
11.655,0.000525195
11.66,0.000605543
11.665,0.000664162
11.67,0.000700722
11.675,0.000714731
11.68,0.000705157
11.685,0.0006719
11.69,0.000617097
11.695,0.000544848
11.7,0.000460226
11.705,0.000368458
11.71,0.000274277
11.715,0.000181441
11.72,9.28556e-05
11.725,1.11889e-05
11.73,-6.15684e-05
11.735,-0.000125698
11.74,-0.000183749
11.745,-0.000237996
11.75,-0.000288502
11.755,-0.000333654
11.76,-0.000371775
11.765,-0.000402315
11.77,-0.000425435
11.775,-0.000439782
11.78,-0.000441539
11.785,-0.000426979
11.79,-0.000394908
11.795,-0.000346288
11.8,-0.000283939
11.805,-0.0002127
11.81,-0.000137207
11.815,-5.95453e-05
11.82,1.97826e-05
11.825,9.96875e-05
11.83,0.000178318
11.835,0.000254388
11.84,0.000327549
11.845,0.000397692
11.85,0.000464473
11.855,0.000526999
11.86,0.000583234
11.865,0.000629195
11.87,0.00065961
11.875,0.000671117
11.88,0.000664051
11.885,0.000640208
11.89,0.000601054
11.895,0.000549284
11.9,0.000489895
11.905,0.000427862
11.91,0.000365476
11.915,0.00030275
11.92,0.000239251
11.925,0.000174648
11.93,0.000107829
11.935,3.58179e-05
11.94,-4.50218e-05
11.945,-0.000134778
11.95,-0.000227402
11.955,-0.000314024
11.96,-0.00038857
11.965,-0.000449285
11.97,-0.000496066
11.975,-0.000528199
11.98,-0.000545024
11.985,-0.000547481
11.99,-0.000538137
11.995,-0.000520306
12,-0.000496792
12.005,-0.000467969
12.01,-0.000431372
12.015,-0.000384017
12.02,-0.000324278
12.025,-0.00025162
12.03,-0.000166771
12.035,-7.29408e-05
12.04,2.44362e-05
12.045,0.000119784
12.05,0.000208949
12.055,0.000289172
12.06,0.000359039
12.065,0.000418879
12.07,0.000470053
12.075,0.000514124
12.08,0.000553171
12.085,0.000589034
12.09,0.000621874
12.095,0.00065056
12.1,0.000673487
12.105,0.00068913
12.11,0.000697242
12.115,0.000698614
12.12,0.000693369
12.125,0.000681719
12.13,0.000666285
12.135,0.000652051
12.14,0.000644262
12.145,0.000646227
12.15,0.00065853
12.155,0.000679996
12.16,0.000708961
12.165,0.00074406
12.17,0.0007844
12.175,0.000829385
12.18,0.000878848
12.185,0.000932675
12.19,0.000989896
12.195,0.00104904
12.2,0.00110886
12.205,0.00116807
12.21,0.00122505
12.215,0.00127765
12.22,0.00132284
12.225,0.00135774
12.23,0.00138147
12.235,0.001395
12.24,0.00139963
12.245,0.00139647
12.25,0.00138693
12.255,0.00137301
12.26,0.00135712
12.265,0.00134123
12.27,0.00132653
12.275,0.00131296
12.28,0.00129792
12.285,0.00127608
12.29,0.00124224
12.295,0.00119399
12.3,0.00113125
12.305,0.00105395
12.31,0.000961113
12.315,0.000852399
12.32,0.000730483
12.325,0.000601917
12.33,0.00047538
12.335,0.000358824
12.34,0.000257385
12.345,0.000172765
12.35,0.000103835
12.355,4.79052e-05
12.36,1.56826e-06
12.365,-3.953e-05
12.37,-8.06601e-05
12.375,-0.00012699
12.38,-0.000182663
12.385,-0.000250582
12.39,-0.000332358
12.395,-0.000427157
12.4,-0.000530708
12.405,-0.000636746
12.41,-0.000739531
12.415,-0.000835598
12.42,-0.000923754
12.425,-0.00100315
12.43,-0.00107205
12.435,-0.00112852
12.44,-0.00117126
12.445,-0.00119938
12.45,-0.00121201
12.455,-0.00120931
12.46,-0.00119391
12.465,-0.00117005
12.47,-0.00114168
12.475,-0.0011122
12.48,-0.00108512
12.485,-0.00106364
12.49,-0.00104895
12.495,-0.00103919
12.5,-0.00103022
12.505,-0.00101745
12.51,-0.000996498
12.515,-0.000962511
12.52,-0.000910331
12.525,-0.000836457
12.53,-0.000741263
12.535,-0.000629009
12.54,-0.000505747
12.545,-0.000377964
12.55,-0.000252753
12.555,-0.000137229
12.56,-3.61699e-05
12.565,4.94773e-05
12.57,0.000120776
12.575,0.000178305
12.58,0.000222546
12.585,0.00025599
12.59,0.00028311
12.595,0.000306982
12.6,0.000326659
12.605,0.000338509
12.61,0.000338767
12.615,0.000324535
12.62,0.000294174
12.625,0.000247952
12.63,0.000187871
12.635,0.000116364
12.64,3.58344e-05
12.645,-5.03369e-05
12.65,-0.000137544
12.655,-0.00022142
12.66,-0.000299296
12.665,-0.000370234
12.67,-0.000434361
12.675,-0.000492191
12.68,-0.000543547
12.685,-0.000587015
12.69,-0.000620596
12.695,-0.00064191
12.7,-0.000648087
12.705,-0.000637069
12.71,-0.000609727
12.715,-0.000570234
12.72,-0.000524088
12.725,-0.00047624
12.73,-0.000430591
12.735,-0.000389867
12.74,-0.000355433
12.745,-0.000326865
12.75,-0.000301717
12.755,-0.000275878
12.76,-0.000243981
12.765,-0.000200818
12.77,-0.000144336
12.775,-7.74632e-05
12.78,-6.64433e-06
12.785,6.14611e-05
12.79,0.000122249
12.795,0.000172727
12.8,0.000209967
12.805,0.000231531
12.81,0.000237117
12.815,0.000228658
12.82,0.000209014
12.825,0.000180787
12.83,0.000146161
12.835,0.00010757
12.84,6.73473e-05
12.845,2.65267e-05
12.85,-1.46457e-05
12.855,-5.54126e-05
12.86,-9.45924e-05
12.865,-0.000130844
12.87,-0.000162672
12.875,-0.000189062
12.88,-0.000210306
12.885,-0.000228217
12.89,-0.000245214
12.895,-0.000263252
12.9,-0.00028388
12.905,-0.000308463
12.91,-0.000337533
12.915,-0.000370148
12.92,-0.000404851
12.925,-0.000441555
12.93,-0.000481517
12.935,-0.000524843
12.94,-0.000568423
12.945,-0.000606877
12.95,-0.000635689
12.955,-0.000653658
12.96,-0.000662795
12.965,-0.000665512
12.97,-0.000662219
12.975,-0.00065316
12.98,-0.00064122
12.985,-0.000630081
12.99,-0.00062135
12.995,-0.000616427
13,-0.000619299
13.005,-0.000633654
13.01,-0.000657807
13.015,-0.000685694
13.02,-0.000712018
13.025,-0.00073427
13.03,-0.000751216
13.035,-0.000760967
13.04,-0.000760849
13.045,-0.000749626
13.05,-0.000728624
13.055,-0.000699678
13.06,-0.000663718
13.065,-0.000621627
13.07,-0.000574759
13.075,-0.000524738
13.08,-0.000473667
13.085,-0.000423965
13.09,-0.000377377
13.095,-0.00033489
13.1,-0.00029802
13.105,-0.000269188
13.11,-0.00025003
13.115,-0.000240056
13.12,-0.000237718
13.125,-0.000241591
13.13,-0.000249837
13.135,-0.000259418
13.14,-0.000266126
13.145,-0.000265726
13.15,-0.000255785
13.155,-0.000236194
13.16,-0.000207994
13.165,-0.000172287
13.17,-0.000130333
13.175,-8.40255e-05
13.18,-3.58186e-05
13.185,1.14855e-05
13.19,5.4907e-05
13.195,9.2136e-05
13.2,0.000121989
13.205,0.000143352
13.21,0.000155003
13.215,0.00015682
13.22,0.000149621
13.225,0.000134506
13.23,0.000113298
13.235,8.83784e-05
13.24,6.20856e-05
13.245,3.71902e-05
13.25,1.61492e-05
13.255,-1.74006e-06
13.26,-2.06214e-05
13.265,-4.42924e-05
13.27,-7.39876e-05
13.275,-0.000110838
13.28,-0.000158073
13.285,-0.000219102
13.29,-0.000294872
13.295,-0.00038366
13.3,-0.000481495
13.305,-0.000581999
13.31,-0.000677513
13.315,-0.000762007
13.32,-0.00083289
13.325,-0.000889691
13.33,-0.000932459
13.335,-0.000962619
13.34,-0.000983787
13.345,-0.0010003
13.35,-0.00101547
13.355,-0.00103124
13.36,-0.00104853
13.365,-0.0010677
13.37,-0.00108855
13.375,-0.00110932
13.38,-0.00112705
13.385,-0.00113988
13.39,-0.00114747
13.395,-0.00114955
13.4,-0.0011463
13.405,-0.00113951
13.41,-0.00113121
13.415,-0.00112198
13.42,-0.00111076
13.425,-0.00109531
13.43,-0.00107302
13.435,-0.0010419
13.44,-0.00100105
13.445,-0.000951337
13.45,-0.000896406
13.455,-0.000842485
13.46,-0.000796864
13.465,-0.000766439
13.47,-0.000756807
13.475,-0.000770346
13.48,-0.000804645
13.485,-0.00085365
13.49,-0.000909838
13.495,-0.000965266
13.5,-0.00101222
13.505,-0.00104413
13.51,-0.00105591
13.515,-0.00104409
13.52,-0.00100802
13.525,-0.000950196
13.53,-0.000874307
13.535,-0.000783765
13.54,-0.000682444
13.545,-0.000575187
13.55,-0.00046643
13.555,-0.000359421
13.56,-0.000257313
13.565,-0.000163747
13.57,-8.19402e-05
13.575,-1.32192e-05
13.58,4.38522e-05
13.585,9.25184e-05
13.59,0.00013672
13.595,0.000180587
13.6,0.000227301
13.605,0.000278956
13.61,0.000337075
13.615,0.000401464
13.62,0.000469307
13.625,0.000536744
13.63,0.000601305
13.635,0.00066266
13.64,0.000721482
13.645,0.00077797
13.65,0.000831651
13.655,0.000882405
13.66,0.000930848
13.665,0.000977477
13.67,0.00102178
13.675,0.00106181
13.68,0.00109421
13.685,0.00111573
13.69,0.00112509
13.695,0.00112332
13.7,0.00111403
13.705,0.00110407
13.71,0.00110111
13.715,0.00110914
13.72,0.00112771
13.725,0.0011547
13.73,0.00118826
13.735,0.00122582
13.74,0.0012624
13.745,0.00129117
13.75,0.00130684
13.755,0.00130889
13.76,0.00130208
13.765,0.00129307
13.77,0.00128675
13.775,0.00128538
13.78,0.00128868
13.785,0.00129367
13.79,0.00129563
13.795,0.0012898
13.8,0.00127217
13.805,0.00124019
13.81,0.00119388
13.815,0.00113548
13.82,0.00106865
13.825,0.000998962
13.83,0.000933652
13.835,0.00087822
13.84,0.00083436
13.845,0.000801847
13.85,0.00078009
13.855,0.000767819
13.86,0.000762808
13.865,0.000761595
13.87,0.00075944
13.875,0.000751813
13.88,0.000736471
13.885,0.000713531
13.89,0.00068338
13.895,0.000644727
13.9,0.000594756
13.905,0.000531595
13.91,0.000456575
13.915,0.000373742
13.92,0.000287874
13.925,0.000203324
13.93,0.000123505
13.935,4.99957e-05
13.94,-1.7527e-05
13.945,-7.98574e-05
13.95,-0.000137407
13.955,-0.000190755
13.96,-0.000241496
13.965,-0.000292518
13.97,-0.000347094
13.975,-0.000407343
13.98,-0.000473527
13.985,-0.000544932
13.99,-0.000621095
13.995,-0.00070169
14,-0.000785992
14.005,-0.000873051
14.01,-0.000961535
14.015,-0.00104893
14.02,-0.0011313
14.025,-0.00120428
14.03,-0.00126439
14.035,-0.00130889
14.04,-0.00133541
14.045,-0.00134322
14.05,-0.00133408
14.055,-0.00131072
14.06,-0.00127564
14.065,-0.00123166
14.07,-0.00118189
14.075,-0.00112821
14.08,-0.00107079
14.085,-0.00100838
14.09,-0.000939513
14.095,-0.000863774
14.1,-0.000781806
14.105,-0.000694058
14.11,-0.000600425
14.115,-0.000500962
14.12,-0.000396397
14.125,-0.000288518
14.13,-0.000180514
14.135,-7.576e-05
14.14,2.40288e-05
14.145,0.000118802
14.15,0.000209073
14.155,0.000295256
14.16,0.000377801
14.165,0.000458049
14.17,0.000538405
14.175,0.000620696
14.18,0.00070432
14.185,0.000787105
14.19,0.000867125
14.195,0.000942451
14.2,0.00101198
14.205,0.00107831
14.21,0.00114657
14.215,0.00121929
14.22,0.0012952
14.225,0.001373
14.23,0.00145263
14.235,0.00153315
14.24,0.00161135
14.245,0.00168283
14.25,0.00174333
14.255,0.00178966
14.26,0.00182023
14.265,0.00183493
14.27,0.00183463
14.275,0.00182084
14.28,0.00179572
14.285,0.00176161
14.29,0.00171975
14.295,0.00166973
14.3,0.00161042
14.305,0.00154136
14.31,0.00146423
14.315,0.00138301
14.32,0.00130206
14.325,0.0012248
14.33,0.00115383
14.335,0.00109048
14.34,0.00103432
14.345,0.000983156
14.35,0.000933576
14.355,0.000881995
14.36,0.000824733
14.365,0.000757736
14.37,0.00067822
14.375,0.000585908
14.38,0.000482625
14.385,0.000372411
14.39,0.000261293
14.395,0.000155366
14.4,5.88858e-05
14.405,-2.59269e-05
14.41,-9.78452e-05
14.415,-0.000156108
14.42,-0.000201524
14.425,-0.000237787
14.43,-0.000270233
14.435,-0.000302653
14.44,-0.000335747
14.445,-0.000368974
14.45,-0.000403164
14.455,-0.000440087
14.46,-0.000480452
14.465,-0.000524102
14.47,-0.000571466
14.475,-0.000623814
14.48,-0.000682576
14.485,-0.00074881
14.49,-0.000822929
14.495,-0.000904404
14.5,-0.000991727
14.505,-0.00108237
14.51,-0.0011718
14.515,-0.0012535
14.52,-0.00132134
14.525,-0.00137131
14.53,-0.00140147
14.535,-0.00141175
14.54,-0.00140351
14.545,-0.00137845
14.55,-0.00133791
14.555,-0.0012836
14.56,-0.00121782
14.565,-0.00114256
14.57,-0.00105849
14.575,-0.000965047
14.58,-0.000861537
14.585,-0.000748918
14.59,-0.00063114
14.595,-0.000513612
14.6,-0.000400148
14.605,-0.000292642
14.61,-0.000192637
14.615,-0.000101193
14.62,-1.83425e-05
14.625,5.68237e-05
14.63,0.000127712
14.635,0.000200787
14.64,0.000281553
14.645,0.000370977
14.65,0.000466781
14.655,0.000565863
14.66,0.000665223
14.665,0.000762348
14.67,0.000854608
14.675,0.000937486
14.68,0.00100382
14.685,0.00104643
14.69,0.00106158
14.695,0.00104894
14.7,0.00100943
14.705,0.000944361
14.71,0.000855361
14.715,0.000744505
14.72,0.000614618
14.725,0.000470189
14.73,0.000318856
14.735,0.000171653
14.74,3.97645e-05
14.745,-6.95527e-05
14.75,-0.000153707
14.755,-0.000213648
14.76,-0.000252593
14.765,-0.00027452
14.77,-0.000284082
14.775,-0.000287965
14.78,-0.000293961
14.785,-0.000307274
14.79,-0.000329135
14.795,-0.000358682
14.8,-0.000394084
14.805,-0.000432708
14.81,-0.000472008
14.815,-0.00051007
14.82,-0.000545351
14.825,-0.000576316
14.83,-0.000601008
14.835,-0.000617354
14.84,-0.000624006
14.845,-0.000619778
14.85,-0.000602428
14.855,-0.000569159
14.86,-0.000518274
14.865,-0.00044949
14.87,-0.000363679
14.875,-0.000263908
14.88,-0.000155437
14.885,-4.35715e-05
14.89,6.71541e-05
14.895,0.00017181
14.9,0.000264964
14.905,0.000342426
14.91,0.000402322
14.915,0.000444163
14.92,0.000468279
14.925,0.000477016
14.93,0.000475291
14.935,0.000469333
14.94,0.000465054
14.945,0.000466862
14.95,0.000477227
14.955,0.000497085
14.96,0.000526057
14.965,0.00056199
14.97,0.00060059
14.975,0.00063642
14.98,0.000665758
14.985,0.000688761
14.99,0.000707381
14.995,0.00072173
15,0.000730787
15.005,0.000735185
15.01,0.000736723
15.015,0.000736112
15.02,0.000732344
15.025,0.000724376
15.03,0.000712678
15.035,0.000698345
15.04,0.000682279
15.045,0.0006661
15.05,0.000652714
15.055,0.000645108
15.06,0.000644262
15.065,0.000648662
15.07,0.000655799
15.075,0.000663401
15.08,0.000669398
15.085,0.000671931
15.09,0.000670264
15.095,0.000664846
15.1,0.000656182
15.105,0.000644747
15.11,0.000631449
15.115,0.000617271
15.12,0.00060282
15.125,0.000588215
15.13,0.00057353
15.135,0.000559272
15.14,0.000545582
15.145,0.000531355
15.15,0.000515123
15.155,0.000496249
15.16,0.000474355
15.165,0.000447837
15.17,0.000414008
15.175,0.000370711
15.18,0.000317025
15.185,0.000253052
15.19,0.000179653
15.195,9.82154e-05
15.2,1.09507e-05
15.205,-7.84638e-05
15.21,-0.000164768
15.215,-0.000241963
15.22,-0.000305473
15.225,-0.000354743
15.23,-0.000392733
15.235,-0.000422205
15.24,-0.000444306
15.245,-0.000460436
15.25,-0.00047295
15.255,-0.000483885
15.26,-0.000494096
15.265,-0.000503618
15.27,-0.000512145
15.275,-0.000518691
15.28,-0.000521899
15.285,-0.000521614
15.29,-0.000519707
15.295,-0.000519175
15.3,-0.000522791
15.305,-0.000532098
15.31,-0.000547024
15.315,-0.000566576
15.32,-0.000589417
15.325,-0.000613477
15.33,-0.000636001
15.335,-0.000654043
15.34,-0.000665348
15.345,-0.000669667
15.35,-0.000668626
15.355,-0.000664536
15.36,-0.000659785
15.365,-0.000656229
15.37,-0.000654776
15.375,-0.000655691
15.38,-0.000658843
15.385,-0.000663171
15.39,-0.000666337
15.395,-0.000665879
15.4,-0.000660522
15.405,-0.000650267
15.41,-0.000635897
15.415,-0.000618468
15.42,-0.000598934
15.425,-0.000577676
15.43,-0.000554009
15.435,-0.000526613
15.44,-0.000494561
15.445,-0.000457024
15.45,-0.000412081
15.455,-0.000357501
15.46,-0.000293112
15.465,-0.00022099
15.47,-0.000143535
15.475,-6.35417e-05
15.48,1.45783e-05
15.485,8.63148e-05
15.49,0.00014921
15.495,0.000202036
15.5,0.000243271
15.505,0.00027203
15.51,0.000289743
15.515,0.000299801
15.52,0.000305878
15.525,0.000311233
15.53,0.000318555
15.535,0.000329455
15.54,0.000344756
15.545,0.000364781
15.55,0.000388397
15.555,0.000412988
15.56,0.00043613
15.565,0.000456363
15.57,0.000472419
15.575,0.000482767
15.58,0.000486442
15.585,0.00048409
15.59,0.00047757
15.595,0.000468273
15.6,0.000456107
15.605,0.000440104
15.61,0.00041919
15.615,0.000392313
15.62,0.000359288
15.625,0.000322193
15.63,0.000285171
15.635,0.000253147
15.64,0.000230834
15.645,0.000221242
15.65,0.000224548
15.655,0.000238915
15.66,0.000261433
15.665,0.000287934
15.67,0.000313201
15.675,0.000331626
15.68,0.000338078
15.685,0.000329774
15.69,0.000307355
15.695,0.000273351
15.7,0.000230345
15.705,0.000180933
15.71,0.000128194
15.715,7.44503e-05
15.72,1.96209e-05
15.725,-3.7275e-05
15.73,-9.51792e-05
15.735,-0.000151201
15.74,-0.000202865
15.745,-0.000248562
15.75,-0.000286704
15.755,-0.000315613
15.76,-0.000334559
15.765,-0.000345458
15.77,-0.000352571
15.775,-0.000359244
15.78,-0.000366146
15.785,-0.000373627
15.79,-0.000384145
15.795,-0.000401382
15.8,-0.000427637
15.805,-0.00046213
15.81,-0.000501406
15.815,-0.000541205
15.82,-0.000577552
15.825,-0.000606352
15.83,-0.000623805
15.835,-0.000628289
15.84,-0.000620634
15.845,-0.000602256
15.85,-0.000574445
15.855,-0.000539396
15.86,-0.000500615
15.865,-0.000462086
15.87,-0.000427648
15.875,-0.000400826
15.88,-0.000383678
15.885,-0.000375474
15.89,-0.000373094
15.895,-0.000372319
15.9,-0.000369532
15.905,-0.000363457
15.91,-0.000354955
15.915,-0.000345855
15.92,-0.000338597
15.925,-0.000335611
15.93,-0.000338445
15.935,-0.000347737
15.94,-0.000363146
15.945,-0.000382634
15.95,-0.000402722
15.955,-0.000420196
15.96,-0.000433384
15.965,-0.000441904
15.97,-0.000446322
15.975,-0.000448082
15.98,-0.000448344
15.985,-0.000447229
15.99,-0.000444765
15.995,-0.00044073
16,-0.000433126
16.005,-0.000419378
16.01,-0.000399047
16.015,-0.000373524
16.02,-0.00034411
16.025,-0.000311966
16.03,-0.000279415
16.035,-0.000249979
16.04,-0.000226266
16.045,-0.00020818
16.05,-0.000193938
16.055,-0.000181837
16.06,-0.000169933
16.065,-0.000155702
16.07,-0.000137405
16.075,-0.000114967
16.08,-8.92389e-05
16.085,-6.1102e-05
16.09,-3.09433e-05
16.095,2.0099e-06
16.1,3.92476e-05
16.105,8.13006e-05
16.11,0.00012744
16.115,0.000176708
16.12,0.000227995
16.125,0.000279418
16.13,0.000328314
16.135,0.000371456
16.14,0.000405476
16.145,0.00042761
16.15,0.000435644
16.155,0.000428188
16.16,0.000406523
16.165,0.000374894
16.17,0.000337736
16.175,0.000298151
16.18,0.000259317
16.185,0.000225299
16.19,0.000199835
16.195,0.000184927
16.2,0.000180851
16.205,0.000186891
16.21,0.000201467
16.215,0.000221975
16.22,0.000244659
16.225,0.000264897
16.23,0.000278377
16.235,0.000282355
16.24,0.000275752
16.245,0.000258008
16.25,0.000228576
16.255,0.000188299
16.26,0.000140056
16.265,8.69751e-05
16.27,3.12542e-05
16.275,-2.43268e-05
16.28,-7.50651e-05
16.285,-0.000116041
16.29,-0.000144911
16.295,-0.000162489
16.3,-0.000171819
16.305,-0.000177299
16.31,-0.000183174
16.315,-0.000191694
16.32,-0.000202847
16.325,-0.000215848
16.33,-0.000230568
16.335,-0.000248072
16.34,-0.000270149
16.345,-0.000297235
16.35,-0.000326303
16.355,-0.000351902
16.36,-0.000369793
16.365,-0.000378982
16.37,-0.000381011
16.375,-0.000378588
16.38,-0.000373831
16.385,-0.000366455
16.39,-0.000354472
16.395,-0.000337271
16.4,-0.000316954
16.405,-0.000295926
16.41,-0.000273917
16.415,-0.000248411
16.42,-0.000217493
16.425,-0.000180825
16.43,-0.000138115
16.435,-8.8161e-05
16.44,-2.96309e-05
16.445,3.81591e-05
16.45,0.000115293
16.455,0.000200217
16.46,0.000288009
16.465,0.000371523
16.47,0.000445279
16.475,0.000507706
16.48,0.000559736
16.485,0.000602377
16.49,0.000635891
16.495,0.00066028
16.5,0.00067608
16.505,0.000684836
16.51,0.000688155
16.515,0.00068615
16.52,0.000677751
16.525,0.000662452
16.53,0.000641071
16.535,0.000615127
16.54,0.000586039
16.545,0.000554705
16.55,0.000521664
16.555,0.000487314
16.56,0.000451606
16.565,0.000414253
16.57,0.000375535
16.575,0.000336151
16.58,0.000296385
16.585,0.000255928
16.59,0.00021464
16.595,0.000173213
16.6,0.000132615
16.605,9.30036e-05
16.61,5.38378e-05
16.615,1.50552e-05
16.62,-2.23875e-05
16.625,-5.72418e-05
16.63,-8.85544e-05
16.635,-0.000115335
16.64,-0.000137003
16.645,-0.000154566
16.65,-0.000170108
16.655,-0.000185116
16.66,-0.000199668
16.665,-0.000212604
16.67,-0.000222548
16.675,-0.000228782
16.68,-0.000230788
16.685,-0.000227857
16.69,-0.00021962
16.695,-0.000205896
16.7,-0.000186134
16.705,-0.00016052
16.71,-0.000131663
16.715,-0.000104018
16.72,-8.1555e-05
16.725,-6.64709e-05
16.73,-5.93828e-05
16.735,-5.9426e-05
16.74,-6.44924e-05
16.745,-7.24612e-05
16.75,-8.1786e-05
16.755,-9.06637e-05
16.76,-9.69584e-05
16.765,-9.92911e-05
16.77,-9.72134e-05
16.775,-9.06654e-05
16.78,-8.01175e-05
16.785,-6.65942e-05
16.79,-5.12805e-05
16.795,-3.53593e-05
16.8,-1.9719e-05
16.805,-4.71335e-06
16.81,9.70634e-06
16.815,2.36761e-05
16.82,3.71978e-05
16.825,5.03972e-05
16.83,6.33311e-05
16.835,7.48464e-05
16.84,8.21763e-05
16.845,8.23949e-05
16.85,7.42197e-05
16.855,5.76531e-05
16.86,3.24416e-05
16.865,-1.71353e-06
16.87,-4.4234e-05
16.875,-9.40937e-05
16.88,-0.000150511
16.885,-0.000212565
16.89,-0.000278276
16.895,-0.000344753
16.9,-0.000409239
16.905,-0.000468738
16.91,-0.000519563
16.915,-0.00055921
16.92,-0.00058795
16.925,-0.000608025
16.93,-0.000621946
16.935,-0.000631769
16.94,-0.000639248
16.945,-0.000645468
16.95,-0.000650495
16.955,-0.000653723
16.96,-0.000653961
16.965,-0.000649571
16.97,-0.000639027
16.975,-0.000621136
16.98,-0.000595273
16.985,-0.000561783
16.99,-0.000522092
16.995,-0.000478567
17,-0.00043361
17.005,-0.000388446
17.01,-0.000342896
17.015,-0.00029629
17.02,-0.000248746
17.025,-0.000200827
17.03,-0.000151569
17.035,-9.89804e-05
17.04,-4.31425e-05
17.045,1.3142e-05
17.05,6.6621e-05
17.055,0.00011488
17.06,0.000156226
17.065,0.000189747
17.07,0.000215608
17.075,0.000234956
17.08,0.000248974
17.085,0.000258314
17.09,0.000264002
17.095,0.000267567
17.1,0.000268935
17.105,0.00026498
17.11,0.000251369
17.115,0.000225779
17.12,0.000188979
17.125,0.000143762
17.13,9.40434e-05
17.135,4.45811e-05
17.14,2.49546e-07
17.145,-3.47824e-05
17.15,-5.71111e-05
17.155,-6.46835e-05
17.16,-5.79913e-05
17.165,-3.97611e-05
17.17,-1.37772e-05
17.175,1.55937e-05
17.18,4.44393e-05
17.185,7.13429e-05
17.19,9.78669e-05
17.195,0.000126617
17.2,0.000159303
17.205,0.000196123
17.21,0.000235865
17.215,0.000276221
17.22,0.000314413
17.225,0.00034751
17.23,0.000372103
17.235,0.000385194
17.24,0.000385631
17.245,0.000373801
17.25,0.000351429
17.255,0.000322593
17.26,0.000293067
17.265,0.000267646
17.27,0.000248414
17.275,0.000235301
17.28,0.000227284
17.285,0.000222792
17.29,0.000219812
17.295,0.000215633
17.3,0.000207184
17.305,0.000193289
17.31,0.000175984
17.315,0.000158761
17.32,0.00014466
17.325,0.000135704
17.33,0.000132454
17.335,0.000134082
17.34,0.000138685
17.345,0.000143128
17.35,0.000143443
17.355,0.000136013
17.36,0.000118763
17.365,9.16733e-05
17.37,5.59161e-05
17.375,1.29598e-05
17.38,-3.47774e-05
17.385,-8.32539e-05
17.39,-0.000127561
17.395,-0.000163468
17.4,-0.000188664
17.405,-0.00020273
17.41,-0.000206695
17.415,-0.000203435
17.42,-0.000197286
17.425,-0.000192282
17.43,-0.000191159
17.435,-0.000195266
17.44,-0.000204415
17.445,-0.000217781
17.45,-0.000235472
17.455,-0.000257692
17.46,-0.000282703
17.465,-0.000307441
17.47,-0.000329152
17.475,-0.000345679
17.48,-0.000356134
17.485,-0.000361139
17.49,-0.000360983
17.495,-0.000354668
17.5,-0.000340808
17.505,-0.000318018
17.51,-0.000285338
17.515,-0.000242944
17.52,-0.000191914
17.525,-0.000134241
17.53,-7.31965e-05
17.535,-1.21826e-05
17.54,4.64221e-05
17.545,0.000100804
17.55,0.000149545
17.555,0.000192303
17.56,0.000229494
17.565,0.000261105
17.57,0.000286513
17.575,0.000304985
17.58,0.000315099
17.585,0.000314694
17.59,0.00030317
17.595,0.000282237
17.6,0.000253503
17.605,0.000218195
17.61,0.000179281
17.615,0.000141257
17.62,0.000108249
17.625,8.32406e-05
17.63,6.71694e-05
17.635,5.76599e-05
17.64,4.96987e-05
17.645,3.78659e-05
17.65,1.80989e-05
17.655,-1.13753e-05
17.66,-5.00362e-05
17.665,-9.58876e-05
17.67,-0.000145904
17.675,-0.00019599
17.68,-0.000241969
17.685,-0.000281163
17.69,-0.00031276
17.695,-0.000337452
17.7,-0.000356786
17.705,-0.000371442
17.71,-0.00038004
17.715,-0.000380479
17.72,-0.000371798
17.725,-0.000354444
17.73,-0.000329688
17.735,-0.000298599
17.74,-0.000261271
17.745,-0.000217502
17.75,-0.000168345
17.755,-0.000116754
17.76,-6.64061e-05
17.765,-1.99691e-05
17.77,2.14754e-05
17.775,5.81854e-05
17.78,9.14084e-05
17.785,0.000122775
17.79,0.000153469
17.795,0.000183464
17.8,0.000211662
17.805,0.000237418
17.81,0.000261474
17.815,0.000284555
17.82,0.000306175
17.825,0.000326631
17.83,0.00034865
17.835,0.000374643
17.84,0.000404002
17.845,0.000434569
17.85,0.000464288
17.855,0.000490418
17.86,0.000509573
17.865,0.000519268
17.87,0.000517934
17.875,0.000504674
17.88,0.00048055
17.885,0.000447989
17.89,0.000408739
17.895,0.000364659
17.9,0.000318856
17.905,0.000274254
17.91,0.000232509
17.915,0.000194239
17.92,0.000159408
17.925,0.00012861
17.93,0.000104203
17.935,8.91108e-05
17.94,8.50366e-05
17.945,9.25921e-05
17.95,0.000111688
17.955,0.000140867
17.96,0.000177246
17.965,0.000216787
17.97,0.000254457
17.975,0.000285791
17.98,0.000308663
17.985,0.000322921
17.99,0.00032867
17.995,0.00032606
18,0.000317462
18.005,0.000308325
18.01,0.000304363
18.015,0.000308573
18.02,0.000321121
18.025,0.000340922
18.03,0.000366362
18.035,0.000394078
18.04,0.000418741
18.045,0.0004363
18.05,0.000446142
18.055,0.000448616
18.06,0.000442465
18.065,0.000426168
18.07,0.000400297
18.075,0.000367124
18.08,0.000328403
18.085,0.000284194
18.09,0.000233325
18.095,0.000174907
18.1,0.000109684
18.105,3.9839e-05
18.11,-3.2182e-05
18.115,-0.000104046
18.12,-0.000172992
18.125,-0.000236139
18.13,-0.000291819
18.135,-0.000340033
18.14,-0.000381588
18.145,-0.000417175
18.15,-0.000447337
18.155,-0.000473185
18.16,-0.000496216
18.165,-0.000516912
18.17,-0.000534563
18.175,-0.00054809
18.18,-0.000555981
18.185,-0.000556869
18.19,-0.000551182
18.195,-0.000541336
18.2,-0.000530273
18.205,-0.000520435
18.21,-0.000513536
18.215,-0.000510197
18.22,-0.000509962
18.225,-0.000512132
18.23,-0.000515946
18.235,-0.000520088
18.24,-0.000523307
18.245,-0.000525214
18.25,-0.000525118
18.255,-0.000520987
18.26,-0.000510887
18.265,-0.000494393
18.27,-0.000472004
18.275,-0.000444585
18.28,-0.000413542
18.285,-0.000379977
18.29,-0.000343894
18.295,-0.000305283
18.3,-0.000265113
18.305,-0.00022439
18.31,-0.000182584
18.315,-0.000137844
18.32,-8.89334e-05
18.325,-3.59733e-05
18.33,2.06871e-05
18.335,8.10765e-05
18.34,0.000144639
18.345,0.000209721
18.35,0.000274674
18.355,0.000338266
18.36,0.000399213
18.365,0.000456691
18.37,0.000510408
18.375,0.000560415
18.38,0.000608682
18.385,0.000659242
18.39,0.000714822
18.395,0.000774359
18.4,0.000833892
18.405,0.000888499
18.41,0.000933752
18.415,0.00096685
18.42,0.000986821
18.425,0.000993618
18.43,0.000987845
18.435,0.000971794
18.44,0.000949419
18.445,0.000924189
18.45,0.000897715
18.455,0.000870669
18.46,0.00084386
18.465,0.000817639
18.47,0.000790597
18.475,0.000760121
18.48,0.00072476
18.485,0.000684906
18.49,0.000641607
18.495,0.000596779
18.5,0.000553719
18.505,0.000515536
18.51,0.000484047
18.515,0.000460905
18.52,0.000447762
18.525,0.000444095
18.53,0.000446249
18.535,0.000449535
18.54,0.000450266
18.545,0.000446469
18.55,0.000438902
18.555,0.000430891
18.56,0.000425973
18.565,0.000426058
18.57,0.000431375
18.575,0.000440976
18.58,0.000452803
18.585,0.000463536
18.59,0.000469602
18.595,0.000468638
18.6,0.000459146
18.605,0.000439868
18.61,0.000411421
18.615,0.000377018
18.62,0.000340008
18.625,0.000301986
18.63,0.000263234
18.635,0.000223795
18.64,0.000184242
18.645,0.000145584
18.65,0.000108154
18.655,7.10988e-05
18.66,3.39256e-05
18.665,-2.31572e-06
18.67,-3.66192e-05
18.675,-6.96913e-05
18.68,-0.000103058
18.685,-0.000137529
18.69,-0.000173219
18.695,-0.000210092
18.7,-0.000248094
18.705,-0.0002873
18.71,-0.000327739
18.715,-0.000368854
18.72,-0.000409298
18.725,-0.000446818
18.73,-0.000478558
18.735,-0.000502538
18.74,-0.000518998
18.745,-0.00052987
18.75,-0.000537148
18.755,-0.000542204
18.76,-0.000545671
18.765,-0.000546748
18.77,-0.000543416
18.775,-0.000534072
18.78,-0.000518121
18.785,-0.000495244
18.79,-0.00046534
18.795,-0.000429075
18.8,-0.000388534
18.805,-0.000347737
18.81,-0.000311136
18.815,-0.000280723
18.82,-0.000255489
18.825,-0.000233387
18.83,-0.000212649
18.835,-0.000192039
18.84,-0.000171534
18.845,-0.00015253
18.85,-0.000136273
18.855,-0.000122528
18.86,-0.000110619
18.865,-0.000100983
18.87,-9.49085e-05
18.875,-9.3592e-05
18.88,-9.79991e-05
18.885,-0.000108603
18.89,-0.00012482
18.895,-0.000145373
18.9,-0.000168926
18.905,-0.000194008
18.91,-0.000218904
18.915,-0.000241803
18.92,-0.000260834
18.925,-0.000274819
18.93,-0.000284803
18.935,-0.000293766
18.94,-0.000303942
18.945,-0.000315237
18.95,-0.000326412
18.955,-0.000336843
18.96,-0.000346504
18.965,-0.000354869
18.97,-0.000361127
18.975,-0.00036568
18.98,-0.000370218
18.985,-0.000375847
18.99,-0.000382354
18.995,-0.000389661
19,-0.000398412
19.005,-0.000408825
19.01,-0.000420357
19.015,-0.000431991
19.02,-0.000441751
19.025,-0.00044687
19.03,-0.000445217
19.035,-0.000436316
19.04,-0.000421096
19.045,-0.000401277
19.05,-0.000378986
19.055,-0.000356244
19.06,-0.000334695
19.065,-0.000315473
19.07,-0.000298942
19.075,-0.000285032
19.08,-0.000273698
19.085,-0.000264716
19.09,-0.000257118
19.095,-0.000248773
19.1,-0.000237328
19.105,-0.000222389
19.11,-0.000206081
19.115,-0.000190991
19.12,-0.000178086
19.125,-0.000167013
19.13,-0.000157628
19.135,-0.000150258
19.14,-0.000145074
19.145,-0.000141575
19.15,-0.000138075
19.155,-0.000132291
19.16,-0.000123203
19.165,-0.000111816
19.17,-0.000100082
19.175,-8.99388e-05
19.18,-8.32381e-05
19.185,-8.22633e-05
19.19,-8.98207e-05
19.195,-0.000108209
19.2,-0.000138829
19.205,-0.000182365
19.21,-0.000237684
19.215,-0.000301224
19.22,-0.000368158
19.225,-0.000433023
19.23,-0.000489711
19.235,-0.000533265
19.24,-0.000561787
19.245,-0.000575477
19.25,-0.000574845
19.255,-0.000560847
19.26,-0.000535937
19.265,-0.000504233
19.27,-0.000470379
19.275,-0.000438296
19.28,-0.00041087
19.285,-0.000389481
19.29,-0.000373006
19.295,-0.000358481
19.3,-0.000343102
19.305,-0.000324723
19.31,-0.000301731
19.315,-0.000273426
19.32,-0.000239355
19.325,-0.000198406
19.33,-0.0001495
19.335,-9.28149e-05
19.34,-2.96959e-05
19.345,3.83686e-05
19.35,0.000109948
19.355,0.000183184
19.36,0.000255674
19.365,0.000324402
19.37,0.000385957
19.375,0.000437232
19.38,0.000475862
19.385,0.00050046
19.39,0.000511017
19.395,0.00050932
19.4,0.000498731
19.405,0.000483104
19.41,0.000465571
19.415,0.000447902
19.42,0.000430683
19.425,0.000414092
19.43,0.000398553
19.435,0.0003843
19.44,0.000371037
19.445,0.000359014
19.45,0.000349708
19.455,0.000344459
19.46,0.000343121
19.465,0.000344917
19.47,0.000349191
19.475,0.00035491
19.48,0.000360993
19.485,0.00036679
19.49,0.000371887
19.495,0.000376524
19.5,0.000381588
19.505,0.000387365
19.51,0.000393427
19.515,0.000399842
19.52,0.000407052
19.525,0.00041459
19.53,0.000420999
19.535,0.000425122
19.54,0.000426762
19.545,0.000426165
19.55,0.000423633
19.555,0.000419582
19.56,0.00041421
19.565,0.000407424
19.57,0.000399574
19.575,0.000391543
19.58,0.000383575
19.585,0.000374535
19.59,0.000362416
19.595,0.000345079
19.6,0.000320969
19.605,0.000289917
19.61,0.000253121
19.615,0.000212395
19.62,0.000169517
19.625,0.000126222
19.63,8.45585e-05
19.635,4.66437e-05
19.64,1.38304e-05
19.645,-1.35003e-05
19.65,-3.54806e-05
19.655,-5.25921e-05
19.66,-6.53438e-05
19.665,-7.38615e-05
19.67,-7.83074e-05
19.675,-7.89747e-05
19.68,-7.60265e-05
19.685,-7.01537e-05
19.69,-6.2765e-05
19.695,-5.46122e-05
19.7,-4.49749e-05
19.705,-3.27898e-05
19.71,-1.79491e-05
19.715,-1.52971e-06
19.72,1.46908e-05
19.725,2.94185e-05
19.73,4.27715e-05
19.735,5.56578e-05
19.74,6.85331e-05
19.745,8.1009e-05
19.75,9.21501e-05
19.755,0.000100475
19.76,0.000103925
19.765,0.000100419
19.77,8.82003e-05
19.775,6.61635e-05
19.78,3.4656e-05
19.785,-4.83228e-06
19.79,-5.0613e-05
19.795,-0.000100139
19.8,-0.000149255
19.805,-0.000193667
19.81,-0.000231046
19.815,-0.000261139
19.82,-0.000284144
19.825,-0.000300348
19.83,-0.000311539
19.835,-0.000320897
19.84,-0.000331056
19.845,-0.000343106
19.85,-0.000357179
19.855,-0.00037348
19.86,-0.000392254
19.865,-0.000412529
19.87,-0.000432115
19.875,-0.000449345
19.88,-0.000464057
19.885,-0.000476966
19.89,-0.000488399
19.895,-0.000497473
19.9,-0.000502244
19.905,-0.000499862
19.91,-0.00048696
19.915,-0.000461229
19.92,-0.000422259
19.925,-0.000370807
19.93,-0.000308796
19.935,-0.000239824
19.94,-0.000168577
19.945,-0.000100372
19.95,-4.03399e-05
19.955,8.59669e-06
19.96,4.60631e-05
19.965,7.27257e-05
19.97,8.97857e-05
19.975,9.92114e-05
19.98,0.000103395
19.985,0.000104608
19.99,0.000104805
19.995,0.000105518
20,0.000107365
20.005,0.000109682
20.01,0.000111065
20.015,0.000110277
20.02,0.000106627
20.025,0.00010026
20.03,9.23792e-05
20.035,8.43449e-05
20.04,7.63275e-05
20.045,6.75905e-05
20.05,5.78918e-05
20.055,4.76221e-05
20.06,3.65243e-05
20.065,2.30198e-05
20.07,4.97809e-06
20.075,-1.89586e-05
20.08,-4.83969e-05
20.085,-8.13971e-05
20.09,-0.000115685
20.095,-0.000149034
20.1,-0.000178971
20.105,-0.000203532
20.11,-0.000221717
20.115,-0.000232658
20.12,-0.000235474
20.125,-0.000229867
20.13,-0.000215976
20.135,-0.000194379
20.14,-0.00016706
20.145,-0.000137644
20.15,-0.000109922
20.155,-8.58567e-05
20.16,-6.47636e-05
20.165,-4.4686e-05
20.17,-2.43927e-05
20.175,-3.40995e-06
20.18,1.90464e-05
20.185,4.42302e-05
20.19,7.32913e-05
20.195,0.000106378
20.2,0.000142027
20.205,0.00017792
20.21,0.000211666
20.215,0.00024054
20.22,0.000262429
20.225,0.000277463
20.23,0.000287352
20.235,0.000293641
20.24,0.000297678
20.245,0.000301325
20.25,0.00030652
20.255,0.000314264
20.26,0.000324559
20.265,0.000337066
20.27,0.000351079
20.275,0.000365376
20.28,0.000379032
20.285,0.000391736
20.29,0.000403271
20.295,0.000413706
20.3,0.000423649
20.305,0.000433604
20.31,0.000443496
20.315,0.000453132
20.32,0.000462484
20.325,0.000471152
20.33,0.000478086
20.335,0.000482138
20.34,0.000482943
20.345,0.000481365
20.35,0.000478684
20.355,0.000475076
20.36,0.000469469
20.365,0.000460883
20.37,0.000448869
20.375,0.000432664
20.38,0.000411056
20.385,0.000383206
20.39,0.000349334
20.395,0.000310856
20.4,0.000270044
20.405,0.000229352
20.41,0.000190432
20.415,0.000153748
20.42,0.00011948
20.425,8.79002e-05
20.43,5.81311e-05
20.435,2.84654e-05
20.44,-1.27809e-06
20.445,-2.98888e-05
20.45,-5.71562e-05
20.455,-8.40642e-05
20.46,-0.000111157
20.465,-0.000138105
20.47,-0.000164224
20.475,-0.000188719
20.48,-0.000211192
20.485,-0.000232366
20.49,-0.000253834
20.495,-0.000276999
20.5,-0.000302074
20.505,-0.000327996
20.51,-0.000353421
20.515,-0.000377554
20.52,-0.000400238
20.525,-0.000421749
20.53,-0.000442241
20.535,-0.00046142
20.54,-0.000479419
20.545,-0.000497675
20.55,-0.000517814
20.555,-0.000539847
20.56,-0.000562379
20.565,-0.000584206
20.57,-0.000604835
20.575,-0.000623761
20.58,-0.000640155
20.585,-0.000653263
20.59,-0.000662518
20.595,-0.000667724
20.6,-0.000669823
20.605,-0.000670742
20.61,-0.000672039
20.615,-0.000674235
20.62,-0.000677055
20.625,-0.000679468
20.63,-0.000679921
20.635,-0.000677019
20.64,-0.000669769
20.645,-0.000657577
20.65,-0.000640556
20.655,-0.000619256
20.66,-0.000593939
20.665,-0.000564721
20.67,-0.000532132
20.675,-0.000497062
20.68,-0.000460417
20.685,-0.000423079
20.69,-0.000386105
20.695,-0.000350994
20.7,-0.000319691
20.705,-0.000293945
20.71,-0.000274641
20.715,-0.000261909
20.72,-0.000255602
20.725,-0.000255232
20.73,-0.000259505
20.735,-0.000265858
20.74,-0.000270696
20.745,-0.000270581
20.75,-0.000263342
20.755,-0.000248462
20.76,-0.000226654
20.765,-0.000199018
20.77,-0.000167145
20.775,-0.000134141
20.78,-0.00010401
20.785,-7.94249e-05
20.79,-6.13436e-05
20.795,-5.02828e-05
20.8,-4.63451e-05
20.805,-4.85432e-05
20.81,-5.50906e-05
20.815,-6.39549e-05
20.82,-7.29086e-05
20.825,-7.93718e-05
20.83,-8.07536e-05
20.835,-7.52127e-05
20.84,-6.15868e-05
20.845,-3.87569e-05
20.85,-5.8366e-06
20.855,3.67263e-05
20.86,8.66176e-05
20.865,0.000141023
20.87,0.000198126
20.875,0.000256647
20.88,0.00031454
20.885,0.000368814
20.89,0.000417027
20.895,0.000458956
20.9,0.00049629
20.905,0.000530587
20.91,0.00056218
20.915,0.000591535
20.92,0.000620858
20.925,0.000653472
20.93,0.000691679
20.935,0.000735881
20.94,0.000785519
20.945,0.000839914
20.95,0.000898187
20.955,0.000958898
20.96,0.00102
20.965,0.00107886
20.97,0.00113237
20.975,0.00117755
20.98,0.00121207
20.985,0.00123474
20.99,0.00124554
20.995,0.00124495
21,0.00123349
21.005,0.00121221
21.01,0.00118247
21.015,0.00114496
21.02,0.00109987
21.025,0.00104863
21.03,0.0009937
21.035,0.000936075
21.04,0.000874804
21.045,0.000809044
21.05,0.000738434
21.055,0.000662259
21.06,0.000580347
21.065,0.000493669
21.07,0.000403198
21.075,0.000309543
21.08,0.000213466
21.085,0.000115984
21.09,1.87331e-05
21.095,-7.60175e-05
21.1,-0.00016648
21.105,-0.000252279
21.11,-0.000334217
21.115,-0.000413141
21.12,-0.000488837
21.125,-0.000560077
21.13,-0.000625675
21.135,-0.000684982
21.14,-0.000736844
21.145,-0.000778974
21.15,-0.000809377
21.155,-0.000827349
21.16,-0.000832992
21.165,-0.000827599
21.17,-0.000814324
21.175,-0.000797496
21.18,-0.000781292
21.185,-0.000768505
21.19,-0.000760396
21.195,-0.000757635
21.2,-0.000760797
21.205,-0.00076986
21.21,-0.000783388
21.215,-0.000799043
21.22,-0.000815059
21.225,-0.000830268
21.23,-0.000843331
21.235,-0.000852906
21.24,-0.000858186
21.245,-0.000858561
21.25,-0.00085295
21.255,-0.000840231
21.26,-0.000820561
21.265,-0.000796031
21.27,-0.000769698
21.275,-0.00074397
21.28,-0.000720443
21.285,-0.000700834
21.29,-0.000686933
21.295,-0.000679659
21.3,-0.00067869
21.305,-0.000682419
21.31,-0.00068762
21.315,-0.000690025
21.32,-0.000686427
21.325,-0.000675669
21.33,-0.000657279
21.335,-0.000630542
21.34,-0.000594761
21.345,-0.000549573
21.35,-0.000495589
21.355,-0.000434751
21.36,-0.000369815
21.365,-0.000303397
21.37,-0.000237304
21.375,-0.000173019
21.38,-0.000112619
21.385,-5.85646e-05
21.39,-1.26023e-05
21.395,2.49663e-05
21.4,5.49019e-05
21.405,7.82664e-05
21.41,9.65185e-05
21.415,0.000111648
21.42,0.000125451
21.425,0.000139083
21.43,0.000153464
21.435,0.000169935
21.44,0.000190244
21.445,0.000215097
21.45,0.000243044
21.455,0.000271976
21.46,0.000300852
21.465,0.00032922
21.47,0.000356491
21.475,0.000382168
21.48,0.000406225
21.485,0.000429255
21.49,0.000451714
21.495,0.000473277
21.5,0.000493691
21.505,0.000513646
21.51,0.000534317
21.515,0.000556161
21.52,0.000578613
21.525,0.00060094
21.53,0.000622318
21.535,0.000641502
21.54,0.000657383
21.545,0.000669123
21.55,0.000675679
21.555,0.00067631
21.56,0.000671485
21.565,0.000662624
21.57,0.000651057
21.575,0.000637272
21.58,0.000621179
21.585,0.00060306
21.59,0.0005833
21.595,0.000561299
21.6,0.000535436
21.605,0.000503746
21.61,0.000464966
21.615,0.000419215
21.62,0.000367376
21.625,0.000310725
21.63,0.000250992
21.635,0.000189398
21.64,0.000126105
21.645,6.16143e-05
21.65,-2.25936e-06
21.655,-6.33737e-05
21.66,-0.000120184
21.665,-0.000171594
21.67,-0.000216563
21.675,-0.000253943
21.68,-0.000282773
21.685,-0.000303178
21.69,-0.000316584
21.695,-0.00032472
21.7,-0.000329222
21.705,-0.000331882
21.71,-0.000334219
21.715,-0.000336959
21.72,-0.000339807
21.725,-0.000341754
21.73,-0.000341817
21.735,-0.000339197
21.74,-0.000332916
21.745,-0.000321812
21.75,-0.000305374
21.755,-0.000284885
21.76,-0.000263107
21.765,-0.000242026
21.77,-0.000221268
21.775,-0.000199246
21.78,-0.000174882
21.785,-0.00014779
21.79,-0.000117773
21.795,-8.50762e-05
21.8,-5.1238e-05
21.805,-1.89819e-05
21.81,9.0785e-06
21.815,3.14853e-05
21.82,4.82718e-05
21.825,6.06516e-05
21.83,6.99032e-05
21.835,7.69349e-05
21.84,8.314e-05
21.845,9.04971e-05
21.85,0.000100358
21.855,0.000112476
21.86,0.000125022
21.865,0.000135527
21.87,0.000142288
21.875,0.000144576
21.88,0.000141696
21.885,0.000133057
21.89,0.000119079
21.895,0.000101246
21.9,8.12647e-05
21.905,6.07548e-05
21.91,4.1606e-05
21.915,2.49577e-05
21.92,9.56805e-06
21.925,-6.89296e-06
21.93,-2.5456e-05
21.935,-4.64574e-05
21.94,-7.04267e-05
21.945,-9.66844e-05
21.95,-0.000123352
21.955,-0.000149501
21.96,-0.000175261
21.965,-0.000200141
21.97,-0.000223244
21.975,-0.000244399
21.98,-0.000264042
21.985,-0.000283038
21.99,-0.000302652
21.995,-0.000324018
22,-0.000347666
22.005,-0.000373017
22.01,-0.000398343
22.015,-0.000421832
22.02,-0.000442287
22.025,-0.000458388
22.03,-0.000468091
22.035,-0.000469724
22.04,-0.000463041
22.045,-0.00044822
22.05,-0.000424912
22.055,-0.000393457
22.06,-0.000355809
22.065,-0.000314285
22.07,-0.000270288
22.075,-0.000224582
22.08,-0.000178494
22.085,-0.000133991
22.09,-9.19178e-05
22.095,-5.13831e-05
22.1,-1.1698e-05
22.105,2.63798e-05
22.11,6.16668e-05
22.115,9.39207e-05
22.12,0.000124052
22.125,0.000153144
22.13,0.000181336
22.135,0.000208368
22.14,0.000235435
22.145,0.000265029
22.15,0.000298137
22.155,0.000333012
22.16,0.00036705
22.165,0.000398249
22.17,0.000424561
22.175,0.000443683
22.18,0.000454117
22.185,0.000455633
22.19,0.000448861
22.195,0.000435181
22.2,0.000416957
22.205,0.000397209
22.21,0.000378557
22.215,0.000362531
22.22,0.000349686
22.225,0.000340107
22.23,0.000333815
22.235,0.000330552
22.24,0.000329652
22.245,0.000330792
22.25,0.000334306
22.255,0.000340007
22.26,0.000346472
22.265,0.000352357
22.27,0.000357428
22.275,0.000361536
22.28,0.000363698
22.285,0.000363051
22.29,0.000359726
22.295,0.000354439
22.3,0.000348606
22.305,0.000344569
22.31,0.000344118
22.315,0.000347505
22.32,0.000354749
22.325,0.000365888
22.33,0.000379163
22.335,0.000390914
22.34,0.00039753
22.345,0.00039681
22.35,0.000388296
22.355,0.000372426
22.36,0.000349569
22.365,0.000320801
22.37,0.000288257
22.375,0.000253586
22.38,0.000217525
22.385,0.000181057
22.39,0.00014512
22.395,0.000109354
22.4,7.29885e-05
22.405,3.6774e-05
22.41,2.71161e-06
22.415,-2.76545e-05
22.42,-5.34352e-05
22.425,-7.34241e-05
22.43,-8.65025e-05
22.435,-9.28462e-05
22.44,-9.38879e-05
22.445,-9.12982e-05
22.45,-8.59377e-05
22.455,-7.79214e-05
22.46,-6.79085e-05
22.465,-5.7369e-05
22.47,-4.7407e-05
22.475,-3.82309e-05
22.48,-2.94004e-05
22.485,-1.9758e-05
22.49,-8.09514e-06
22.495,5.49367e-06
22.5,2.03971e-05
22.505,3.69845e-05
22.51,5.5659e-05
22.515,7.61925e-05
22.52,9.87553e-05
22.525,0.000123306
22.53,0.000148256
22.535,0.00017165
22.54,0.000192458
22.545,0.00020977
22.55,0.000222532
22.555,0.000230311
22.56,0.000233039
22.565,0.000230345
22.57,0.000221897
22.575,0.000207959
22.58,0.000188968
22.585,0.000164951
22.59,0.000136348
22.595,0.000105046
22.6,7.35243e-05
22.605,4.36236e-05
22.61,1.70622e-05
22.615,-4.41152e-06
22.62,-2.02079e-05
22.625,-3.06112e-05
22.63,-3.566e-05
22.635,-3.59494e-05
22.64,-3.33749e-05
22.645,-3.0047e-05
22.65,-2.75043e-05
22.655,-2.69511e-05
22.66,-2.91152e-05
22.665,-3.38252e-05
22.67,-4.02424e-05
22.675,-4.7098e-05
22.68,-5.27294e-05
22.685,-5.58231e-05
22.69,-5.58719e-05
22.695,-5.25506e-05
22.7,-4.5609e-05
22.705,-3.53194e-05
22.71,-2.21573e-05
22.715,-6.71387e-06
22.72,9.85903e-06
22.725,2.64682e-05
22.73,4.28123e-05
22.735,5.86963e-05
22.74,7.32267e-05
22.745,8.48373e-05
22.75,9.17343e-05
22.755,9.29588e-05
22.76,8.91853e-05
22.765,8.17755e-05
22.77,7.16468e-05
22.775,5.98643e-05
22.78,4.80462e-05
22.785,3.72175e-05
22.79,2.74876e-05
22.795,1.89159e-05
22.8,1.15671e-05
22.805,5.06938e-06
22.81,-1.66377e-06
22.815,-1.06067e-05
22.82,-2.3677e-05
22.825,-4.10785e-05
22.83,-6.12066e-05
22.835,-8.2099e-05
22.84,-0.000102262
22.845,-0.000120375
22.85,-0.00013542
22.855,-0.000147243
22.86,-0.000156153
22.865,-0.000162183
22.87,-0.000164988
22.875,-0.000164347
22.88,-0.000160786
22.885,-0.000155089
22.89,-0.000147202
22.895,-0.000136686
22.9,-0.000123875
22.905,-0.000110152
22.91,-9.80262e-05
22.915,-9.04679e-05
22.92,-8.9037e-05
22.925,-9.31247e-05
22.93,-0.000101112
22.935,-0.000111299
22.94,-0.00012182
22.945,-0.000130787
22.95,-0.000136543
22.955,-0.000137303
22.96,-0.00013153
22.965,-0.00011928
22.97,-0.000102528
22.975,-8.40078e-05
22.98,-6.59706e-05
22.985,-4.99594e-05
22.99,-3.74148e-05
22.995,-3.00385e-05
23,-2.89251e-05
23.005,-3.34929e-05
23.01,-4.22965e-05
23.015,-5.43235e-05
23.02,-6.85281e-05
23.025,-8.35229e-05
23.03,-9.84387e-05
23.035,-0.000112577
23.04,-0.000124652
23.045,-0.000133507
23.05,-0.000138589
23.055,-0.00013983
23.06,-0.000137956
23.065,-0.000134539
23.07,-0.000131193
23.075,-0.000128756
23.08,-0.000127493
23.085,-0.000127494
23.09,-0.000128238
23.095,-0.000128516
23.1,-0.000127354
23.105,-0.000124189
23.11,-0.000117948
23.115,-0.000107127
23.12,-9.09763e-05
23.125,-6.99534e-05
23.13,-4.53183e-05
23.135,-1.86913e-05
23.14,8.15389e-06
23.145,3.32537e-05
23.15,5.49546e-05
23.155,7.28857e-05
23.16,8.7788e-05
23.165,0.000100395
23.17,0.000111165
23.175,0.000120747
23.18,0.000129864
23.185,0.000138885
23.19,0.000148058
23.195,0.00015755
23.2,0.000167042
23.205,0.000176449
23.21,0.000186551
23.215,0.00019786
23.22,0.000210228
23.225,0.000223985
23.23,0.00023955
23.235,0.00025585
23.24,0.000270741
23.245,0.000282477
23.25,0.000289745
23.255,0.000291579
23.26,0.000288264
23.265,0.000281306
23.27,0.000272403
23.275,0.000263101
23.28,0.000254842
23.285,0.000248946
23.29,0.000246626
23.295,0.00024813
23.3,0.000251848
23.305,0.000255387
23.31,0.000257352
23.315,0.000257246
23.32,0.000254357
23.325,0.00024829
23.33,0.000240212
23.335,0.000232111
23.34,0.000225166
23.345,0.000219663
23.35,0.000215698
23.355,0.00021317
23.36,0.000211154
23.365,0.00020772
23.37,0.000200869
23.375,0.000189623
23.38,0.000174338
23.385,0.000156521
23.39,0.000138034
23.395,0.000120194
23.4,0.000103765
23.405,8.92025e-05
23.41,7.65121e-05
23.415,6.52941e-05
23.42,5.53746e-05
23.425,4.71391e-05
23.43,4.05779e-05
23.435,3.47052e-05
23.44,2.90403e-05
23.445,2.4303e-05
23.45,2.09056e-05
23.455,1.88382e-05
23.46,1.85287e-05
23.465,1.97368e-05
23.47,2.12239e-05
23.475,2.25199e-05
23.48,2.39586e-05
23.485,2.48554e-05
23.49,2.35673e-05
23.495,1.9209e-05
23.5,1.20058e-05
23.505,2.64896e-06
23.51,-7.76333e-06
23.515,-1.80887e-05
23.52,-2.79872e-05
23.525,-3.74355e-05
23.53,-4.55857e-05
23.535,-5.16699e-05
23.54,-5.66024e-05
23.545,-6.19997e-05
23.55,-6.84407e-05
23.555,-7.58034e-05
23.56,-8.3975e-05
23.565,-9.2626e-05
23.57,-0.0001011
23.575,-0.000108754
23.58,-0.000115071
23.585,-0.000119509
23.59,-0.000121715
23.595,-0.000121561
23.6,-0.000118993
23.605,-0.000114551
23.61,-0.000109563
23.615,-0.000105284
23.62,-0.000102073
23.625,-9.93318e-05
23.63,-9.64926e-05
23.635,-9.40308e-05
23.64,-9.26943e-05
23.645,-9.2195e-05
23.65,-9.19844e-05
23.655,-9.25116e-05
23.66,-9.4308e-05
23.665,-9.67549e-05
23.67,-9.89876e-05
23.675,-0.000101261
23.68,-0.000104191
23.685,-0.000106973
23.69,-0.000107739
23.695,-0.000105686
23.7,-0.000101419
23.705,-9.54503e-05
23.71,-8.76798e-05
23.715,-7.8164e-05
23.72,-6.77175e-05
23.725,-5.78629e-05
23.73,-5.00951e-05
23.735,-4.48866e-05
23.74,-4.17303e-05
23.745,-3.99469e-05
23.75,-3.88987e-05
23.755,-3.79473e-05
23.76,-3.6684e-05
23.765,-3.5162e-05
23.77,-3.37866e-05
23.775,-3.23915e-05
23.78,-2.96578e-05
23.785,-2.45975e-05
23.79,-1.79619e-05
23.795,-1.12244e-05
23.8,-5.34641e-06
23.805,-8.77883e-07
23.81,1.92481e-06
23.815,2.95663e-06
23.82,1.51591e-06
23.825,-3.7614e-06
23.83,-1.35395e-05
23.835,-2.68259e-05
23.84,-4.21477e-05
23.845,-5.91485e-05
23.85,-7.80418e-05
23.855,-9.84071e-05
23.86,-0.000119669
23.865,-0.000141644
23.87,-0.000164022
23.875,-0.000186565
23.88,-0.000209427
23.885,-0.000232252
23.89,-0.00025408
23.895,-0.000274215
23.9,-0.000292268
23.905,-0.000308502
23.91,-0.000324168
23.915,-0.000340169
23.92,-0.000356028
23.925,-0.000370866
23.93,-0.000384117
23.935,-0.000394822
23.94,-0.000401831
23.945,-0.00040473
23.95,-0.000403419
23.955,-0.00039766
23.96,-0.000387723
23.965,-0.000374664
23.97,-0.000359543
23.975,-0.000342841
23.98,-0.000324856
23.985,-0.000306166
23.99,-0.000287406
23.995,-0.000268966
24,-0.000251134
24.005,-0.00023437
24.01,-0.000219159
24.015,-0.000205683
24.02,-0.000193909
24.025,-0.000183502
24.03,-0.000173338
24.035,-0.000162018
24.04,-0.000148716
24.045,-0.00013277
24.05,-0.000113331
24.055,-9.00823e-05
24.06,-6.36925e-05
24.065,-3.54517e-05
24.07,-7.18594e-06
24.075,1.84672e-05
24.08,3.89648e-05
24.085,5.34741e-05
24.09,6.28988e-05
24.095,6.86539e-05
24.1,7.21662e-05
24.105,7.48725e-05
24.11,7.75888e-05
24.115,8.04085e-05
24.12,8.3725e-05
24.125,8.81785e-05
24.13,9.3352e-05
24.135,9.80464e-05
24.14,0.00010198
24.145,0.00010609
24.15,0.000111687
24.155,0.000119934
24.16,0.000131283
24.165,0.000145196
24.17,0.000160587
24.175,0.000176417
24.18,0.000191726
24.185,0.000205092
24.19,0.000214773
24.195,0.000220147
24.2,0.000222529
24.205,0.000224015
24.21,0.000225949
24.215,0.000228938
24.22,0.000233425
24.225,0.000239471
24.23,0.000246852
24.235,0.000255796
24.24,0.000266809
24.245,0.000279461
24.25,0.000292124
24.255,0.000303196
24.26,0.000311475
24.265,0.000315498
24.27,0.000314162
24.275,0.000307462
24.28,0.000295734
24.285,0.00027926
24.29,0.000258475
24.295,0.000233926
24.3,0.000206917
24.305,0.000179759
24.31,0.000154512
24.315,0.000132091
24.32,0.000112861
24.325,9.70922e-05
24.33,8.45685e-05
24.335,7.46387e-05
24.34,6.65776e-05
24.345,5.94623e-05
24.35,5.23609e-05
24.355,4.47866e-05
24.36,3.63631e-05
24.365,2.6473e-05
24.37,1.49975e-05
24.375,2.6413e-06
24.38,-1.0379e-05
24.385,-2.49471e-05
24.39,-4.14592e-05
24.395,-5.87825e-05
24.4,-7.54087e-05
24.405,-9.07736e-05
24.41,-0.000105254
24.415,-0.000119019
24.42,-0.00013121
24.425,-0.000141048
24.43,-0.000149231
24.435,-0.000157111
24.44,-0.00016512
24.445,-0.000172968
24.45,-0.000180604
24.455,-0.000188077
24.46,-0.000195355
24.465,-0.000202809
24.47,-0.000211138
24.475,-0.000220961
24.48,-0.000233004
24.485,-0.000247818
24.49,-0.000264886
24.495,-0.000282932
24.5,-0.000300908
24.505,-0.000318053
24.51,-0.000333705
24.515,-0.000347121
24.52,-0.000356908
24.525,-0.000361592
24.53,-0.000360961
24.535,-0.000355692
24.54,-0.000346035
24.545,-0.000331952
24.55,-0.0003139
24.555,-0.00029288
24.56,-0.000270155
24.565,-0.000246465
24.57,-0.000221458
24.575,-0.000194868
24.58,-0.000167918
24.585,-0.000142612
24.59,-0.000120064
24.595,-0.000100107
24.6,-8.22509e-05
24.605,-6.628e-05
24.61,-5.18953e-05
24.615,-3.84601e-05
24.62,-2.5082e-05
24.625,-1.09163e-05
24.63,4.23897e-06
24.635,1.97197e-05
24.64,3.43517e-05
24.645,4.6591e-05
24.65,5.46147e-05
24.655,5.7419e-05
24.66,5.56752e-05
24.665,5.08175e-05
24.67,4.40573e-05
24.675,3.63504e-05
24.68,2.81639e-05
24.685,1.95483e-05
24.69,1.09611e-05
24.695,3.02506e-06
24.7,-4.51904e-06
24.705,-1.24978e-05
24.71,-2.14443e-05
24.715,-3.16355e-05
24.72,-4.2889e-05
24.725,-5.41595e-05
24.73,-6.43533e-05
24.735,-7.32051e-05
24.74,-8.06494e-05
24.745,-8.62614e-05
24.75,-9.02454e-05
24.755,-9.38416e-05
24.76,-9.77471e-05
24.765,-0.000101394
24.77,-0.000104301
24.775,-0.000106797
24.78,-0.000109138
24.785,-0.000110557
24.79,-0.000109766
24.795,-0.000106918
24.8,-0.000104153
24.805,-0.000103551
24.81,-0.000105737
24.815,-0.000110795
24.82,-0.000118982
24.825,-0.000129609
24.83,-0.000140857
24.835,-0.000151812
24.84,-0.000162875
24.845,-0.000173964
24.85,-0.000184382
24.855,-0.000193998
24.86,-0.000202852
24.865,-0.000210725
24.87,-0.000217786
24.875,-0.000224486
24.88,-0.000230914
24.885,-0.000236827
24.89,-0.000241952
24.895,-0.000246346
24.9,-0.000250566
24.905,-0.000254876
24.91,-0.000258707
24.915,-0.0002614
24.92,-0.000262601
24.925,-0.000261918
24.93,-0.000259021
24.935,-0.000253852
24.94,-0.000246395
24.945,-0.000236314
24.95,-0.000223058
24.955,-0.000206647
24.96,-0.000188021
24.965,-0.000168334
24.97,-0.00014832
24.975,-0.000128513
24.98,-0.000109338
24.985,-9.07924e-05
24.99,-7.26969e-05
24.995,-5.52343e-05
25,-3.89182e-05
25.005,-2.38918e-05
25.01,-9.21967e-06
25.015,6.35623e-06
25.02,2.25677e-05
25.025,3.77423e-05
25.03,5.10553e-05
25.035,6.30172e-05
25.04,7.3958e-05
25.045,8.38502e-05
25.05,9.29767e-05
25.055,0.000101541
25.06,0.00010932
25.065,0.000116126
25.07,0.000122102
25.075,0.000127619
25.08,0.000133305
25.085,0.000139971
25.09,0.000148359
25.095,0.000159389
25.1,0.000174074
25.105,0.000192592
25.11,0.000214314
25.115,0.000238811
25.12,0.000265766
25.125,0.000294274
25.13,0.000323333
25.135,0.000352601
25.14,0.000381935
25.145,0.000410571
25.15,0.000437389
25.155,0.000462088
25.16,0.000485561
25.165,0.000508736
25.17,0.000531686
25.175,0.000554277
25.18,0.000576819
25.185,0.000599296
25.19,0.000620605
25.195,0.00063942
25.2,0.000655083
25.205,0.000667368
25.21,0.000676254
25.215,0.000681562
25.22,0.000682362
25.225,0.000677495
25.23,0.000666525
25.235,0.000649397
25.24,0.000625791
25.245,0.000596017
25.25,0.000562023
25.255,0.000526336
25.26,0.000490467
25.265,0.000454849
25.27,0.000419566
25.275,0.000384987
25.28,0.000351771
25.285,0.000319889
25.29,0.000288474
25.295,0.000256735
25.3,0.000223764
25.305,0.000188282
25.31,0.000149992
25.315,0.000110379
25.32,7.13677e-05
25.325,3.40879e-05
25.33,-2.23171e-07
25.335,-2.95502e-05
25.34,-5.28014e-05
25.345,-7.0751e-05
25.35,-8.43251e-05
25.355,-9.35885e-05
25.36,-9.91039e-05
25.365,-0.000102862
25.37,-0.000107067
25.375,-0.000112719
25.38,-0.000119669
25.385,-0.000127687
25.39,-0.000137351
25.395,-0.000149559
25.4,-0.000164599
25.405,-0.000182372
25.41,-0.00020282
25.415,-0.000225598
25.42,-0.000249842
25.425,-0.000274585
25.43,-0.000299022
25.435,-0.000322054
25.44,-0.000342361
25.445,-0.000359577
25.45,-0.000374545
25.455,-0.0003879
25.46,-0.000399329
25.465,-0.000408718
25.47,-0.000417111
25.475,-0.000425587
25.48,-0.00043388
25.485,-0.000441139
25.49,-0.000447175
25.495,-0.000451718
25.5,-0.000453531
25.505,-0.000451665
25.51,-0.000446464
25.515,-0.000438535
25.52,-0.000427999
25.525,-0.000414991
25.53,-0.000399901
25.535,-0.000383227
25.54,-0.000365663
25.545,-0.000348192
25.55,-0.000331657
25.555,-0.00031618
25.56,-0.000301147
25.565,-0.000285682
25.57,-0.000269227
25.575,-0.000251778
25.58,-0.000233408
25.585,-0.000213723
25.59,-0.000192382
25.595,-0.000170096
25.6,-0.000148395
25.605,-0.000128525
25.61,-0.000111321
25.615,-9.7762e-05
25.62,-8.87666e-05
25.625,-8.47691e-05
25.63,-8.56664e-05
25.635,-9.05413e-05
25.64,-9.78601e-05
25.645,-0.00010623
25.65,-0.000114337
25.655,-0.000120877
25.66,-0.000125178
25.665,-0.000127158
25.67,-0.000126489
25.675,-0.000122524
25.68,-0.000115439
25.685,-0.000106394
25.69,-9.59267e-05
25.695,-8.36219e-05
25.7,-6.94046e-05
25.705,-5.35018e-05
25.71,-3.60985e-05
25.715,-1.82019e-05
25.72,-1.29624e-06
25.725,1.3965e-05
25.73,2.7629e-05
25.735,3.98705e-05
25.74,5.08786e-05
25.745,6.07537e-05
25.75,7.00747e-05
25.755,8.05219e-05
25.76,9.37579e-05
25.765,0.000110017
25.77,0.000128831
25.775,0.000149947
25.78,0.000172652
25.785,0.000195432
25.79,0.000216538
25.795,0.000234203
25.8,0.000246883
25.805,0.000254244
25.81,0.000257559
25.815,0.000258126
25.82,0.000255824
25.825,0.000250132
25.83,0.000241526
25.835,0.000231047
25.84,0.000219343
25.845,0.000206405
25.85,0.000191906
25.855,0.000175991
25.86,0.000159329
25.865,0.000142365
25.87,0.000125223
25.875,0.000108323
25.88,9.25508e-05
25.885,7.86739e-05
25.89,6.66992e-05
25.895,5.5786e-05
25.9,4.51412e-05
25.905,3.47011e-05
25.91,2.43714e-05
25.915,1.37834e-05
25.92,2.96016e-06
25.925,-7.59604e-06
25.93,-1.68563e-05
25.935,-2.37525e-05
25.94,-2.82397e-05
25.945,-3.03983e-05
25.95,-2.89089e-05
25.955,-2.25537e-05
25.96,-1.21422e-05
25.965,6.43643e-07
25.97,1.45725e-05
25.975,2.82785e-05
25.98,4.01935e-05
25.985,4.93826e-05
25.99,5.55285e-05
25.995,5.88065e-05
26,6.03674e-05
26.005,6.19058e-05
26.01,6.45319e-05
26.015,6.84686e-05
26.02,7.33408e-05
26.025,7.86215e-05
26.03,8.38682e-05
26.035,8.82592e-05
26.04,9.02746e-05
26.045,8.8394e-05
26.05,8.22725e-05
26.055,7.29885e-05
26.06,6.19498e-05
26.065,4.98708e-05
26.07,3.68031e-05
26.075,2.27094e-05
26.08,7.76649e-06
26.085,-7.88951e-06
26.09,-2.45907e-05
26.095,-4.3132e-05
26.1,-6.38949e-05
26.105,-8.56958e-05
26.11,-0.000106058
26.115,-0.000122974
26.12,-0.000135882
26.125,-0.000144969
26.13,-0.000150321
26.135,-0.000151732
26.14,-0.000148981
26.145,-0.000142656
26.15,-0.000134623
26.155,-0.0001271
26.16,-0.000121194
26.165,-0.000116934
26.17,-0.000114387
26.175,-0.000113401
26.18,-0.00011255
26.185,-0.000110011
26.19,-0.000105216
26.195,-9.82718e-05
26.2,-8.89144e-05
26.205,-7.74094e-05
26.21,-6.51025e-05
26.215,-5.32421e-05
26.22,-4.23681e-05
26.225,-3.27854e-05
26.23,-2.47095e-05
26.235,-1.80217e-05
26.24,-1.23e-05
26.245,-7.33635e-06
26.25,-3.48593e-06
26.255,-1.32414e-06
26.26,-1.05642e-06
26.265,-2.10209e-06
26.27,-3.46394e-06
26.275,-4.56319e-06
26.28,-5.08718e-06
26.285,-4.78507e-06
26.29,-3.89981e-06
26.295,-2.70939e-06
26.3,-1.13557e-06
26.305,8.09454e-07
26.31,3.17847e-06
26.315,6.05294e-06
26.32,8.77575e-06
26.325,1.03756e-05
26.33,1.09779e-05
26.335,1.16446e-05
26.34,1.28348e-05
26.345,1.41611e-05
26.35,1.54885e-05
26.355,1.72652e-05
26.36,1.99276e-05
26.365,2.36806e-05
26.37,2.89084e-05
26.375,3.6382e-05
26.38,4.65878e-05
26.385,5.90687e-05
26.39,7.3075e-05
26.395,8.80613e-05
26.4,0.00010283
26.405,0.000115585
26.41,0.000125119
26.415,0.000130846
26.42,0.000132285
26.425,0.000129301
26.43,0.000122507
26.435,0.000113163
26.44,0.000102525
26.445,9.12448e-05
26.45,7.96252e-05
26.455,6.82923e-05
26.46,5.81556e-05
26.465,4.96557e-05
26.47,4.23935e-05
26.475,3.567e-05
26.48,2.93144e-05
26.485,2.36162e-05
26.49,1.85405e-05
26.495,1.40432e-05
26.5,1.0905e-05
26.505,9.96977e-06
26.51,1.10044e-05
26.515,1.34229e-05
26.52,1.72142e-05
26.525,2.21486e-05
26.53,2.73855e-05
26.535,3.25859e-05
26.54,3.83012e-05
26.545,4.51144e-05
26.55,5.32e-05
26.555,6.26305e-05
26.56,7.35593e-05
26.565,8.60598e-05
26.57,0.000100018
26.575,0.000115254
26.58,0.000131366
26.585,0.000147077
26.59,0.000160526
26.595,0.00017072
26.6,0.000177752
26.605,0.000181658
26.61,0.000182149
26.615,0.000179404
26.62,0.000174361
26.625,0.000167958
26.63,0.000160473
26.635,0.000151634
26.64,0.000140772
26.645,0.000127065
26.65,0.000109931
26.655,8.9023e-05
26.66,6.46069e-05
26.665,3.76123e-05
26.67,8.62071e-06
26.675,-2.19795e-05
26.68,-5.29362e-05
26.685,-8.26275e-05
26.69,-0.000110135
26.695,-0.000135243
26.7,-0.0001583
26.705,-0.000179683
26.71,-0.000198209
26.715,-0.000211616
26.72,-0.000219265
26.725,-0.000222265
26.73,-0.000221072
26.735,-0.000215066
26.74,-0.000203784
26.745,-0.00018705
26.75,-0.000164989
26.755,-0.000138808
26.76,-0.000110596
26.765,-8.22849e-05
26.77,-5.51348e-05
26.775,-2.96461e-05
26.78,-5.69173e-06
26.785,1.73303e-05
26.79,4.02217e-05
26.795,6.32119e-05
26.8,8.60666e-05
26.805,0.000109257
26.81,0.000133811
26.815,0.000159944
26.82,0.000186482
26.825,0.000211409
26.83,0.000233396
26.835,0.000252921
26.84,0.000270941
26.845,0.000287103
26.85,0.000300376
26.855,0.000310532
26.86,0.000317765
26.865,0.000321888
26.87,0.000322699
26.875,0.000320167
26.88,0.000314199
26.885,0.000304634
26.89,0.000291552
26.895,0.000276031
26.9,0.000260043
26.905,0.000244738
26.91,0.000230013
26.915,0.00021633
26.92,0.000204969
26.925,0.000196429
26.93,0.000190254
26.935,0.000185695
26.94,0.000181819
26.945,0.000177924
26.95,0.000174084
26.955,0.000170712
26.96,0.000167899
26.965,0.000165718
26.97,0.000164452
26.975,0.000163879
26.98,0.000163201
26.985,0.000161964
26.99,0.000160276
26.995,0.000158166
27,0.000155367
27.005,0.000151749
27.01,0.000147576
27.015,0.000142957
27.02,0.000137411
27.025,0.000130675
27.03,0.000123297
27.035,0.000115719
27.04,0.000107566
27.045,9.81583e-05
27.05,8.73708e-05
27.055,7.60251e-05
27.06,6.53487e-05
27.065,5.59968e-05
27.07,4.80306e-05
27.075,4.18628e-05
27.08,3.82423e-05
27.085,3.66862e-05
27.09,3.53735e-05
27.095,3.37963e-05
27.1,3.34652e-05
27.105,3.50455e-05
27.11,3.75579e-05
27.115,4.08431e-05
27.12,4.61753e-05
27.125,5.39481e-05
27.13,6.25173e-05
27.135,7.0076e-05
27.14,7.6697e-05
27.145,8.36225e-05
27.15,9.09875e-05
27.155,9.74013e-05
27.16,0.000101815
27.165,0.000104632
27.17,0.000106888
27.175,0.000109283
27.18,0.000111969
27.185,0.000114714
27.19,0.00011721
27.195,0.000119176
27.2,0.000120143
27.205,0.000119355
27.21,0.000116287
27.215,0.000110815
27.22,0.000102424
27.225,9.04622e-05
27.23,7.51643e-05
27.235,5.71153e-05
27.24,3.67367e-05
27.245,1.51097e-05
27.25,-6.04938e-06
27.255,-2.5854e-05
27.26,-4.48475e-05
27.265,-6.3361e-05
27.27,-8.02945e-05
27.275,-9.46952e-05
27.28,-0.000106993
27.285,-0.000117574
27.29,-0.000126039
27.295,-0.000132457
27.3,-0.00013721
27.305,-0.000139872
27.31,-0.000140165
27.315,-0.000139051
27.32,-0.000137642
27.325,-0.000135956
27.33,-0.000133498
27.335,-0.000130334
27.34,-0.000126658
27.345,-0.000122412
27.35,-0.000117908
27.355,-0.000113398
27.36,-0.00010833
27.365,-0.00010207
27.37,-9.49495e-05
27.375,-8.80293e-05
27.38,-8.19515e-05
27.385,-7.69296e-05
27.39,-7.35748e-05
27.395,-7.25967e-05
27.4,-7.40582e-05
27.405,-7.74594e-05
27.41,-8.23644e-05
27.415,-8.87266e-05
27.42,-9.6675e-05
27.425,-0.000106204
27.43,-0.000116757
27.435,-0.000127289
27.44,-0.000137335
27.445,-0.000147183
27.45,-0.000156735
27.455,-0.000165516
27.46,-0.000173407
27.465,-0.000180338
27.47,-0.000186246
27.475,-0.000191465
27.48,-0.000196418
27.485,-0.000201374
27.49,-0.000206372
27.495,-0.000210911
27.5,-0.000214302
27.505,-0.000216249
27.51,-0.000216487
27.515,-0.000214519
27.52,-0.000210292
27.525,-0.000204586
27.53,-0.000198226
27.535,-0.000191288
27.54,-0.000184044
27.545,-0.000177794
27.55,-0.000173331
27.555,-0.000169932
27.56,-0.000166479
27.565,-0.00016235
27.57,-0.000157265
27.575,-0.000150961
27.58,-0.000143452
27.585,-0.000135593
27.59,-0.000128439
27.595,-0.000122111
27.6,-0.000116181
27.605,-0.000110636
27.61,-0.000105852
27.615,-0.000102013
27.62,-9.85971e-05
27.625,-9.44865e-05
27.63,-8.90152e-05
27.635,-8.25911e-05
27.64,-7.60887e-05
27.645,-7.0111e-05
27.65,-6.49776e-05
27.655,-6.07926e-05
27.66,-5.71366e-05
27.665,-5.32545e-05
27.67,-4.85549e-05
27.675,-4.23551e-05
27.68,-3.37704e-05
27.685,-2.2788e-05
27.69,-1.06539e-05
27.695,1.7385e-06
27.7,1.46448e-05
27.705,2.80528e-05
27.71,4.07543e-05
27.715,5.11169e-05
27.72,5.82991e-05
27.725,6.24906e-05
27.73,6.43846e-05
27.735,6.49978e-05
27.74,6.53552e-05
27.745,6.60318e-05
27.75,6.72406e-05
27.755,6.90427e-05
27.76,7.12823e-05
27.765,7.35012e-05
27.77,7.53618e-05
27.775,7.70309e-05
27.78,7.86092e-05
27.785,7.97145e-05
27.79,7.99316e-05
27.795,7.9127e-05
27.8,7.74413e-05
27.805,7.49582e-05
27.81,7.14236e-05
27.815,6.68614e-05
27.82,6.17488e-05
27.825,5.61643e-05
27.83,5.01104e-05
27.835,4.42626e-05
27.84,3.91365e-05
27.845,3.46771e-05
27.85,3.10524e-05
27.855,2.86586e-05
27.86,2.78832e-05
27.865,2.89969e-05
27.87,3.12834e-05
27.875,3.33595e-05
27.88,3.46256e-05
27.885,3.49807e-05
27.89,3.39289e-05
27.895,3.0962e-05
27.9,2.60188e-05
27.905,1.92986e-05
27.91,1.11749e-05
27.915,2.26151e-06
27.92,-6.86284e-06
27.925,-1.56946e-05
27.93,-2.34755e-05
27.935,-2.97639e-05
27.94,-3.52079e-05
27.945,-4.05906e-05
27.95,-4.60763e-05
27.955,-5.22941e-05
27.96,-6.01231e-05
27.965,-6.87923e-05
27.97,-7.64809e-05
27.975,-8.31285e-05
27.98,-9.00277e-05
27.985,-9.68633e-05
27.99,-0.000102499
27.995,-0.000107812
28,-0.000114669
28.005,-0.00012344
28.01,-0.000133231
28.015,-0.000143072
28.02,-0.000152347
28.025,-0.00016093
28.03,-0.000168908
28.035,-0.000176188
28.04,-0.000182589
28.045,-0.000188113
28.05,-0.000192901
28.055,-0.000197102
28.06,-0.0002009
28.065,-0.00020444
28.07,-0.000207643
28.075,-0.000210466
28.08,-0.000213346
28.085,-0.000216487
28.09,-0.000218828
28.095,-0.000218778
28.1,-0.000215845
28.105,-0.000211069
28.11,-0.000205758
28.115,-0.000199965
28.12,-0.000192916
28.125,-0.00018473
28.13,-0.000176281
28.135,-0.000167601
28.14,-0.000158023
28.145,-0.000147466
28.15,-0.00013622
28.155,-0.000124059
28.16,-0.000110241
28.165,-9.40971e-05
28.17,-7.57075e-05
28.175,-5.59577e-05
28.18,-3.55829e-05
28.185,-1.45668e-05
28.19,7.29799e-06
28.195,2.984e-05
28.2,5.26879e-05
28.205,7.56122e-05
28.21,9.85741e-05
28.215,0.000121582
28.22,0.000144235
28.225,0.000165387
28.23,0.000183705
28.235,0.000198493
28.24,0.000209763
28.245,0.000217543
28.25,0.000221516
28.255,0.000221708
28.26,0.000219088
28.265,0.00021514
28.27,0.000211145
28.275,0.000207796
28.28,0.000204926
28.285,0.000201731
28.29,0.000197728
28.295,0.000193034
28.3,0.000187466
28.305,0.000179988
28.31,0.000169516
28.315,0.000156124
28.32,0.000140854
28.325,0.00012455
28.33,0.000107373
28.335,8.93331e-05
28.34,7.12981e-05
28.345,5.48228e-05
28.35,4.05524e-05
28.355,2.81336e-05
28.36,1.77238e-05
28.365,9.82156e-06
28.37,3.9791e-06
28.375,-5.26542e-07
28.38,-3.55405e-06
28.385,-5.16729e-06
28.39,-6.64011e-06
28.395,-9.2638e-06
28.4,-1.33105e-05
28.405,-1.88428e-05
28.41,-2.61099e-05
28.415,-3.46327e-05
28.42,-4.32431e-05
28.425,-5.09037e-05
28.43,-5.67812e-05
28.435,-6.02084e-05
28.44,-6.0756e-05
28.445,-5.81471e-05
28.45,-5.27258e-05
28.455,-4.57281e-05
28.46,-3.81864e-05
28.465,-3.02365e-05
28.47,-2.20742e-05
28.475,-1.45096e-05
28.48,-7.89928e-06
28.485,-1.71364e-06
28.49,4.17716e-06
28.495,9.19249e-06
28.5,1.28532e-05
28.505,1.45352e-05
28.51,1.34993e-05
28.515,9.90426e-06
28.52,4.85933e-06
28.525,-3.76294e-07
28.53,-4.90998e-06
28.535,-8.46438e-06
28.54,-1.09893e-05
28.545,-1.17601e-05
28.55,-9.91338e-06
28.555,-5.92693e-06
28.56,-1.07222e-06
28.565,3.73211e-06
28.57,7.6259e-06
28.575,9.68516e-06
28.58,9.05563e-06
28.585,5.11738e-06
28.59,-1.6968e-06
28.595,-9.68532e-06
28.6,-1.68778e-05
28.605,-2.20976e-05
28.61,-2.53225e-05
28.615,-2.70709e-05
28.62,-2.78662e-05
28.625,-2.8665e-05
28.63,-3.05873e-05
28.635,-3.38618e-05
28.64,-3.79061e-05
28.645,-4.24552e-05
28.65,-4.80785e-05
28.655,-5.51216e-05
28.66,-6.26778e-05
28.665,-6.94862e-05
28.67,-7.51375e-05
28.675,-7.98297e-05
28.68,-8.39811e-05
28.685,-8.79459e-05
28.69,-9.11481e-05
28.695,-9.26218e-05
28.7,-9.27259e-05
28.705,-9.24997e-05
28.71,-9.15322e-05
28.715,-8.85069e-05
28.72,-8.38204e-05
28.725,-7.94366e-05
28.73,-7.59771e-05
28.735,-7.22971e-05
28.74,-6.77076e-05
28.745,-6.27436e-05
28.75,-5.82042e-05
28.755,-5.42584e-05
28.76,-5.03053e-05
28.765,-4.58786e-05
28.77,-4.13813e-05
28.775,-3.72629e-05
28.78,-3.33407e-05
28.785,-2.94797e-05
28.79,-2.58692e-05
28.795,-2.24933e-05
28.8,-1.89992e-05
28.805,-1.51677e-05
28.81,-1.12959e-05
28.815,-7.87889e-06
28.82,-5.11052e-06
28.825,-2.99848e-06
28.83,-1.78669e-06
28.835,-1.96683e-06
28.84,-3.67663e-06
28.845,-6.35957e-06
28.85,-9.29893e-06
28.855,-1.19203e-05
28.86,-1.35046e-05
28.865,-1.3296e-05
28.87,-1.10892e-05
28.875,-7.3583e-06
28.88,-2.64935e-06
28.885,2.7145e-06
28.89,8.45022e-06
28.895,1.40398e-05
28.9,1.84977e-05
28.905,2.11537e-05
28.91,2.26218e-05
28.915,2.41683e-05
28.92,2.65456e-05
28.925,2.9908e-05
28.93,3.44044e-05
28.935,4.02707e-05
28.94,4.75999e-05
28.945,5.61487e-05
28.95,6.49894e-05
28.955,7.31544e-05
28.96,8.08132e-05
28.965,8.86754e-05
28.97,9.66815e-05
28.975,0.000104234
28.98,0.000110947
28.985,0.000116541
28.99,0.000120737
28.995,0.000123147
29,0.000122651
29.005,0.00011783
29.01,0.000108142
29.015,9.36325e-05
29.02,7.43826e-05
29.025,5.11556e-05
29.03,2.5769e-05
29.035,4.30969e-07
29.04,-2.31649e-05
29.045,-4.43447e-05
29.05,-6.32038e-05
29.055,-8.00751e-05
29.06,-9.51389e-05
29.065,-0.000108442
29.07,-0.000120727
29.075,-0.00013353
29.08,-0.000147676
29.085,-0.000162566
29.09,-0.000177019
29.095,-0.000189969
29.1,-0.000200782
29.105,-0.000209691
29.11,-0.000217545
29.115,-0.000224537
29.12,-0.000229739
29.125,-0.000232324
29.13,-0.00023264
29.135,-0.000231668
29.14,-0.000229714
29.145,-0.000225777
29.15,-0.000218367
29.155,-0.000206731
29.16,-0.000190785
29.165,-0.00017055
29.17,-0.000146384
29.175,-0.000119332
29.18,-9.09739e-05
29.185,-6.3037e-05
29.19,-3.71153e-05
29.195,-1.45139e-05
29.2,4.07161e-06
29.205,1.89652e-05
29.21,3.10726e-05
29.215,4.07228e-05
29.22,4.76537e-05
29.225,5.22855e-05
29.23,5.58942e-05
29.235,5.94516e-05
29.24,6.33586e-05
29.245,6.77951e-05
29.25,7.23241e-05
29.255,7.61158e-05
29.26,7.92054e-05
29.265,8.24518e-05
29.27,8.65339e-05
29.275,9.19445e-05
29.28,9.92682e-05
29.285,0.000108747
29.29,0.000119774
29.295,0.000131482
29.3,0.000143678
29.305,0.000156186
29.31,0.000168111
29.315,0.000178908
29.32,0.000188892
29.325,0.000198405
29.33,0.000207817
29.335,0.000217778
29.34,0.000228853
29.345,0.000241521
29.35,0.000256355
29.355,0.000273608
29.36,0.00029288
29.365,0.000313241
29.37,0.000333307
29.375,0.00035157
29.38,0.000367173
29.385,0.000380108
29.39,0.000390329
29.395,0.000397493
29.4,0.000401806
29.405,0.000403712
29.41,0.000402926
29.415,0.000399073
29.42,0.00039253
29.425,0.000383618
29.43,0.000371842
29.435,0.000356533
29.44,0.000337856
29.445,0.000316941
29.45,0.00029505
29.455,0.000272617
29.46,0.000249505
29.465,0.000226188
29.47,0.00020365
29.475,0.000182061
29.48,0.000160756
29.485,0.000139417
29.49,0.000118169
29.495,9.66683e-05
29.5,7.42631e-05
29.505,5.13772e-05
29.51,2.96604e-05
29.515,1.01222e-05
29.52,-7.5092e-06
29.525,-2.30971e-05
29.53,-3.54769e-05
29.535,-4.39943e-05
29.54,-4.91301e-05
29.545,-5.14382e-05
29.55,-5.13333e-05
29.555,-4.93644e-05
29.56,-4.55218e-05
29.565,-3.91669e-05
29.57,-2.996e-05
29.575,-1.83985e-05
29.58,-5.50746e-06
29.585,8.07448e-06
29.59,2.25767e-05
29.595,3.87113e-05
29.6,5.69478e-05
29.605,7.67431e-05
29.61,9.6679e-05
29.615,0.00011555
29.62,0.000132649
29.625,0.000147694
29.63,0.00016119
29.635,0.000173597
29.64,0.000184583
29.645,0.000194412
29.65,0.000204225
29.655,0.000214097
29.66,0.000222988
29.665,0.000230656
29.67,0.000237633
29.675,0.00024378
29.68,0.000248426
29.685,0.000251088
29.69,0.000251558
29.695,0.000250225
29.7,0.000247856
29.705,0.000244668
29.71,0.000240612
29.715,0.000236
29.72,0.000230761
29.725,0.000224499
29.73,0.000217767
29.735,0.000211646
29.74,0.000206048
29.745,0.000199891
29.75,0.000193114
29.755,0.000186951
29.76,0.00018202
29.765,0.000177904
29.77,0.000174497
29.775,0.000172482
29.78,0.000172727
29.785,0.000175411
29.79,0.000179527
29.795,0.000183704
29.8,0.000187411
29.805,0.000190526
29.81,0.000192239
29.815,0.000191592
29.82,0.000188642
29.825,0.000183864
29.83,0.000177256
29.835,0.000169062
29.84,0.000160121
29.845,0.000150863
29.85,0.000141073
29.855,0.00013075
29.86,0.00012057
29.865,0.000111422
29.87,0.000103301
29.875,9.50245e-05
29.88,8.56581e-05
29.885,7.52363e-05
29.89,6.38968e-05
29.895,5.17821e-05
29.9,3.95485e-05
29.905,2.76172e-05
29.91,1.53134e-05
29.915,1.84671e-06
29.92,-1.22988e-05
29.925,-2.60148e-05
29.93,-3.89745e-05
29.935,-5.10262e-05
29.94,-6.13903e-05
29.945,-6.98598e-05
29.95,-7.7234e-05
29.955,-8.40694e-05
29.96,-9.02683e-05
29.965,-9.56038e-05
29.97,-0.0001002
29.975,-0.000104817
29.98,-0.000110487
29.985,-0.00011764
29.99,-0.0001257
29.995,-0.000133921
30,-0.000142091
30.005,-0.0001499
30.01,-0.000157023
30.015,-0.000163747
30.02,-0.000170063
30.025,-0.000175242
30.03,-0.000179202
30.035,-0.000182793
30.04,-0.00018653
30.045,-0.000190258
30.05,-0.000193974
30.055,-0.000198207
30.06,-0.000203408
30.065,-0.000209089
30.07,-0.000213999
30.075,-0.000217566
30.08,-0.000220608
30.085,-0.000223879
30.09,-0.000226767
30.095,-0.000227903
30.1,-0.000226078
30.105,-0.000220792
30.11,-0.000212553
30.115,-0.000201706
30.12,-0.000187477
30.125,-0.000169559
30.13,-0.000149326
30.135,-0.000128483
30.14,-0.000107996
30.145,-8.8558e-05
30.15,-7.04754e-05
30.155,-5.3377e-05
30.16,-3.72058e-05
30.165,-2.26813e-05
30.17,-1.02002e-05
30.175,7.59313e-07
30.18,1.10446e-05
30.185,2.10951e-05
30.19,3.07835e-05
30.195,3.97591e-05
30.2,4.76018e-05
30.205,5.39841e-05
30.21,5.90394e-05
30.215,6.30438e-05
30.22,6.56841e-05
30.225,6.61161e-05
30.23,6.37516e-05
30.235,5.86167e-05
30.24,5.08241e-05
30.245,4.02223e-05
30.25,2.69232e-05
30.255,1.17341e-05
30.26,-4.26694e-06
30.265,-2.00866e-05
30.27,-3.46234e-05
30.275,-4.69085e-05
30.28,-5.67132e-05
30.285,-6.45847e-05
30.29,-7.12737e-05
30.295,-7.711e-05
30.3,-8.19619e-05
30.305,-8.57196e-05
30.31,-8.85366e-05
30.315,-9.06358e-05
30.32,-9.21256e-05
30.325,-9.30516e-05
30.33,-9.35031e-05
30.335,-9.36119e-05
30.34,-9.36492e-05
30.345,-9.43063e-05
30.35,-9.64671e-05
30.355,-0.000100347
30.36,-0.000105518
30.365,-0.000111826
30.37,-0.000118992
30.375,-0.000125564
30.38,-0.000129856
30.385,-0.000131567
30.39,-0.000131557
30.395,-0.000130867
30.4,-0.00013047
30.405,-0.00013113
30.41,-0.000133375
30.415,-0.000137945
30.42,-0.00014562
30.425,-0.000156097
30.43,-0.000167861
30.435,-0.000179546
30.44,-0.000190465
30.445,-0.00020017
30.45,-0.000208784
30.455,-0.000216999
30.46,-0.000224953
30.465,-0.000232023
30.47,-0.000237797
30.475,-0.000242676
30.48,-0.000247014
30.485,-0.000250182
30.49,-0.000251171
30.495,-0.000249305
30.5,-0.000244175
30.505,-0.000235672
30.51,-0.000224362
30.515,-0.000211529
30.52,-0.000198523
30.525,-0.00018634
30.53,-0.000175454
30.535,-0.000165335
30.54,-0.000154911
30.545,-0.000143618
30.55,-0.000131153
30.555,-0.000117334
30.56,-0.000102725
30.565,-8.80591e-05
30.57,-7.32772e-05
30.575,-5.81516e-05
30.58,-4.3502e-05
30.585,-3.05985e-05
30.59,-1.9179e-05
30.595,-7.75703e-06
30.6,4.05392e-06
30.605,1.55404e-05
30.61,2.65915e-05
30.615,3.74203e-05
30.62,4.76406e-05
30.625,5.70516e-05
30.63,6.60826e-05
30.635,7.48588e-05
30.64,8.2922e-05
30.645,8.98313e-05
30.65,9.54907e-05
30.655,0.000100292
30.66,0.000104932
30.665,0.000109956
30.67,0.000115782
30.675,0.000122671
30.68,0.000130349
30.685,0.000138096
30.69,0.000145246
30.695,0.000151472
30.7,0.000156942
30.705,0.000162371
30.71,0.00016833
30.715,0.000174374
30.72,0.000179599
30.725,0.000183931
30.73,0.000187754
30.735,0.000190732
30.74,0.000192118
30.745,0.000191358
30.75,0.000188065
30.755,0.000182341
30.76,0.000174766
30.765,0.000165893
30.77,0.000156494
30.775,0.000147647
30.78,0.000139784
30.785,0.000132577
30.79,0.000125707
30.795,0.000118505
30.8,0.000109799
30.805,9.91013e-05
30.81,8.69014e-05
30.815,7.35466e-05
30.82,5.86861e-05
30.825,4.2205e-05
30.83,2.49684e-05
30.835,8.01371e-06
30.84,-8.39779e-06
30.845,-2.46139e-05
30.85,-4.07069e-05
30.855,-5.62274e-05
30.86,-7.09785e-05
30.865,-8.51555e-05
30.87,-9.8658e-05
30.875,-0.000110976
30.88,-0.000121779
30.885,-0.000131463
30.89,-0.000140605
30.895,-0.000148981
30.9,-0.000156057
30.905,-0.000161982
30.91,-0.000167199
30.915,-0.000171905
30.92,-0.0001765
30.925,-0.000181265
30.93,-0.000185316
30.935,-0.000187614
30.94,-0.000188548
30.945,-0.000188842
30.95,-0.000188227
30.955,-0.000186433
30.96,-0.000183915
30.965,-0.00018118
30.97,-0.000178624
30.975,-0.000176854
30.98,-0.000176298
30.985,-0.000176823
30.99,-0.000177993
30.995,-0.000179442
31,-0.000181135
31.005,-0.000183348
31.01,-0.00018612
31.015,-0.00018888
31.02,-0.000191368
31.025,-0.000194387
31.03,-0.000198636
31.035,-0.000203881
31.04,-0.000209845
31.045,-0.000216717
31.05,-0.000224561
31.055,-0.000232793
31.06,-0.00024024
31.065,-0.000246019
31.07,-0.000250307
31.075,-0.000253582
31.08,-0.000256001
31.085,-0.000258101
31.09,-0.000260355
31.095,-0.000261988
31.1,-0.000262017
31.105,-0.000260977
31.11,-0.000260035
31.115,-0.000259357
31.12,-0.000258807
31.125,-0.000258702
31.13,-0.000258837
31.135,-0.000258353
31.14,-0.000256768
31.145,-0.000254217
31.15,-0.000251148
31.155,-0.000248128
31.16,-0.000245607
31.165,-0.000243653
31.17,-0.000241793
31.175,-0.000239329
31.18,-0.000235864
31.185,-0.000231038
31.19,-0.000224228
31.195,-0.000215299
31.2,-0.000204868
31.205,-0.000193212
31.21,-0.000180058
31.215,-0.000165969
31.22,-0.000152802
31.225,-0.00014222
31.23,-0.000134348
31.235,-0.000128116
31.24,-0.00012231
31.245,-0.000115865
31.25,-0.000107578
31.255,-9.63085e-05
31.26,-8.18816e-05
31.265,-6.54547e-05
31.27,-4.8314e-05
31.275,-3.06611e-05
31.28,-1.22145e-05
31.285,6.70711e-06
31.29,2.5438e-05
31.295,4.40797e-05
31.3,6.3603e-05
31.305,8.45631e-05
31.31,0.000106819
31.315,0.000130272
31.32,0.000154231
31.325,0.000177024
31.33,0.000197494
31.335,0.000215724
31.34,0.000231826
31.345,0.00024487
31.35,0.000253822
31.355,0.000259097
31.36,0.000261961
31.365,0.000262863
31.37,0.000261656
31.375,0.000259099
31.38,0.000256707
31.385,0.000255102
31.39,0.000253643
31.395,0.00025128
31.4,0.000247315
31.405,0.00024171
31.41,0.000234542
31.415,0.000225724
31.42,0.000215573
31.425,0.000204523
31.43,0.000192411
31.435,0.000179099
31.44,0.000165053
31.445,0.000150642
31.45,0.000135914
31.455,0.000121238
31.46,0.000107084
31.465,9.33936e-05
31.47,8.01027e-05
31.475,6.76856e-05
31.48,5.65e-05
31.485,4.65344e-05
31.49,3.79844e-05
31.495,3.099e-05
31.5,2.51178e-05
31.505,1.99346e-05
31.51,1.57955e-05
31.515,1.33095e-05
31.52,1.22471e-05
31.525,1.19367e-05
31.53,1.21708e-05
31.535,1.27503e-05
31.54,1.27036e-05
31.545,1.08852e-05
31.55,7.43065e-06
31.555,3.61427e-06
31.56,9.16254e-08
31.565,-3.54584e-06
31.57,-7.62536e-06
31.575,-1.19881e-05
31.58,-1.66859e-05
31.585,-2.25199e-05
31.59,-3.06985e-05
31.595,-4.16535e-05
31.6,-5.45481e-05
31.605,-6.82849e-05
31.61,-8.22377e-05
31.615,-9.58855e-05
31.62,-0.000108456
31.625,-0.000119205
31.63,-0.000127672
31.635,-0.000133703
31.64,-0.000137734
31.645,-0.000140629
31.65,-0.000142903
31.655,-0.000144675
31.66,-0.000146342
31.665,-0.000148618
31.67,-0.000151658
31.675,-0.000154658
31.68,-0.000156557
31.685,-0.000156742
31.69,-0.000155265
31.695,-0.000152688
31.7,-0.0001494
31.705,-0.000145318
31.71,-0.000140344
31.715,-0.000134678
31.72,-0.000128748
31.725,-0.000123027
31.73,-0.000117716
31.735,-0.000112658
31.74,-0.000107592
31.745,-0.00010236
31.75,-9.71313e-05
31.755,-9.24827e-05
31.76,-8.91805e-05
31.765,-8.79517e-05
31.77,-8.92466e-05
31.775,-9.30646e-05
31.78,-9.89928e-05
31.785,-0.000106352
31.79,-0.00011455
31.795,-0.000123292
31.8,-0.000132194
31.805,-0.000140469
31.81,-0.000147445
31.815,-0.000153146
31.82,-0.000158067
31.825,-0.00016272
31.83,-0.000167336
31.835,-0.00017178
31.84,-0.000175852
31.845,-0.00017952
31.85,-0.000182775
31.855,-0.000185461
31.86,-0.000187258
31.865,-0.000187688
31.87,-0.00018616
31.875,-0.000182435
31.88,-0.000176957
31.885,-0.000170127
31.89,-0.000161612
31.895,-0.000151124
31.9,-0.000139253
31.905,-0.000126685
31.91,-0.000113209
31.915,-9.81458e-05
31.92,-8.13415e-05
31.925,-6.33763e-05
31.93,-4.50214e-05
31.935,-2.6585e-05
31.94,-8.07316e-06
31.945,1.00319e-05
31.95,2.7111e-05
31.955,4.3124e-05
31.96,5.83626e-05
31.965,7.33174e-05
31.97,8.83859e-05
31.975,0.000103218
31.98,0.000117245
31.985,0.00013045
31.99,0.000142814
31.995,0.000153718
32,0.000162476
32.005,0.000168839
32.01,0.000172781
32.015,0.000174546
32.02,0.000174675
32.025,0.000173273
32.03,0.000170112
32.035,0.00016569
32.04,0.000161143
32.045,0.000157442
32.05,0.000155116
32.055,0.000153861
32.06,0.000152449
32.065,0.000149715
32.07,0.000145367
32.075,0.000139632
32.08,0.000132602
32.085,0.00012431
32.09,0.000115159
32.095,0.000105661
32.1,9.59888e-05
32.105,8.62242e-05
32.11,7.64035e-05
32.115,6.63143e-05
32.12,5.58618e-05
32.125,4.53117e-05
32.13,3.49429e-05
32.135,2.48952e-05
32.14,1.53923e-05
32.145,7.00296e-06
32.15,7.14542e-07
32.155,-2.96176e-06
32.16,-4.98513e-06
32.165,-6.58413e-06
32.17,-7.53762e-06
32.175,-7.21824e-06
32.18,-6.37595e-06
32.185,-6.43478e-06
32.19,-7.94398e-06
32.195,-1.04121e-05
32.2,-1.30839e-05
32.205,-1.55194e-05
32.21,-1.74564e-05
32.215,-1.87816e-05
32.22,-1.97929e-05
32.225,-2.08818e-05
32.23,-2.18539e-05
32.235,-2.21646e-05
32.24,-2.21712e-05
32.245,-2.29703e-05
32.25,-2.46667e-05
32.255,-2.64908e-05
32.26,-2.84986e-05
32.265,-3.14459e-05
32.27,-3.53466e-05
32.275,-3.95879e-05
32.28,-4.38452e-05
32.285,-4.79134e-05
32.29,-5.16508e-05
32.295,-5.52694e-05
32.3,-5.8788e-05
32.305,-6.19086e-05
32.31,-6.46223e-05
32.315,-6.70164e-05
32.32,-6.90588e-05
32.325,-7.10633e-05
32.33,-7.36549e-05
32.335,-7.71238e-05
32.34,-8.10683e-05
32.345,-8.4873e-05
32.35,-8.84286e-05
32.355,-9.20435e-05
32.36,-9.58293e-05
32.365,-9.9208e-05
32.37,-0.000100988
32.375,-0.00010056
32.38,-9.87241e-05
32.385,-9.64625e-05
32.39,-9.36297e-05
32.395,-8.95087e-05
32.4,-8.36569e-05
32.405,-7.59182e-05
32.41,-6.64528e-05
32.415,-5.58613e-05
32.42,-4.47217e-05
32.425,-3.30528e-05
32.43,-2.07814e-05
32.435,-8.29905e-06
32.44,4.13165e-06
32.445,1.66366e-05
32.45,2.90904e-05
32.455,4.1241e-05
32.46,5.29223e-05
32.465,6.359e-05
32.47,7.274e-05
32.475,8.05117e-05
32.48,8.70501e-05
32.485,9.1907e-05
32.49,9.47224e-05
32.495,9.60329e-05
32.5,9.65492e-05
32.505,9.62481e-05
32.51,9.5011e-05
32.515,9.33043e-05
32.52,9.19785e-05
32.525,9.16449e-05
32.53,9.19246e-05
32.535,9.19726e-05
32.54,9.17968e-05
32.545,9.18598e-05
32.55,9.18386e-05
32.555,9.1013e-05
32.56,8.91562e-05
32.565,8.64316e-05
32.57,8.31385e-05
32.575,7.9515e-05
32.58,7.55878e-05
32.585,7.14843e-05
32.59,6.78586e-05
32.595,6.58111e-05
32.6,6.60708e-05
32.605,6.81053e-05
32.61,7.05062e-05
32.615,7.25171e-05
32.62,7.45782e-05
32.625,7.74052e-05
32.63,8.12492e-05
32.635,8.59165e-05
32.64,9.11673e-05
32.645,9.70753e-05
32.65,0.000103839
32.655,0.000111011
32.66,0.000117276
32.665,0.000121494
32.67,0.000123596
32.675,0.000123881
32.68,0.000122014
32.685,0.000117813
32.69,0.000111964
32.695,0.000105081
32.7,9.74256e-05
32.705,8.95388e-05
32.71,8.20871e-05
32.715,7.51147e-05
32.72,6.80554e-05
32.725,6.06359e-05
32.73,5.33032e-05
32.735,4.66045e-05
32.74,4.04055e-05
32.745,3.41003e-05
32.75,2.75873e-05
32.755,2.13611e-05
32.76,1.55096e-05
32.765,9.46453e-06
32.77,3.07518e-06
32.775,-2.98954e-06
32.78,-8.2192e-06
32.785,-1.26155e-05
32.79,-1.60905e-05
32.795,-1.86185e-05
32.8,-2.0665e-05
32.805,-2.27438e-05
32.81,-2.50546e-05
32.815,-2.75387e-05
32.82,-2.99603e-05
32.825,-3.23401e-05
32.83,-3.49293e-05
32.835,-3.75097e-05
32.84,-3.94978e-05
32.845,-4.07428e-05
32.85,-4.17618e-05
32.855,-4.31557e-05
32.86,-4.5129e-05
32.865,-4.76947e-05
32.87,-5.07312e-05
32.875,-5.38059e-05
32.88,-5.63466e-05
32.885,-5.79021e-05
32.89,-5.80272e-05
32.895,-5.60625e-05
32.9,-5.15374e-05
32.905,-4.48873e-05
32.91,-3.74219e-05
32.915,-3.01107e-05
32.92,-2.27444e-05
32.925,-1.52924e-05
32.93,-8.9203e-06
32.935,-4.18696e-06
32.94,4.8616e-08
32.945,4.78044e-06
32.95,9.75201e-06
32.955,1.48259e-05
32.96,2.07127e-05
32.965,2.80525e-05
32.97,3.69064e-05
32.975,4.68794e-05
32.98,5.74067e-05
32.985,6.82156e-05
32.99,7.93383e-05
32.995,9.07271e-05
33,0.000102149
33.005,0.00011323
33.01,0.00012337
33.015,0.000132093
33.02,0.000139599
33.025,0.000146416
33.03,0.000152588
33.035,0.000157447
33.04,0.000160171
33.045,0.000160785
33.05,0.000160004
33.055,0.000157923
33.06,0.000154153
33.065,0.000149072
33.07,0.000143441
33.075,0.00013711
33.08,0.000129345
33.085,0.000120025
33.09,0.00010971
33.095,9.90115e-05
33.1,8.82456e-05
33.105,7.75317e-05
33.11,6.71643e-05
33.115,5.74535e-05
33.12,4.81317e-05
33.125,3.8786e-05
33.13,2.96728e-05
33.135,2.10515e-05
33.14,1.23356e-05
33.145,3.01386e-06
33.15,-6.56453e-06
33.155,-1.61483e-05
33.16,-2.60698e-05
33.165,-3.65497e-05
33.17,-4.76371e-05
33.175,-5.93779e-05
33.18,-7.14941e-05
33.185,-8.35657e-05
33.19,-9.53808e-05
33.195,-0.000106648
33.2,-0.000116555
33.205,-0.000123984
33.21,-0.000128451
33.215,-0.000130773
33.22,-0.000132634
33.225,-0.000135275
33.23,-0.000138477
33.235,-0.000141526
33.24,-0.000145071
33.245,-0.000150392
33.25,-0.000157319
33.255,-0.000164862
33.26,-0.000173099
33.265,-0.000182713
33.27,-0.000193218
33.275,-0.000203219
33.28,-0.000211996
33.285,-0.000219056
33.29,-0.000223371
33.295,-0.00022487
33.3,-0.00022458
33.305,-0.000222589
33.31,-0.000218078
33.315,-0.000210982
33.32,-0.00020218
33.325,-0.000192496
33.33,-0.000182172
33.335,-0.000171276
33.34,-0.000160258
33.345,-0.000149567
33.35,-0.00013884
33.355,-0.000127403
33.36,-0.00011524
33.365,-0.000102442
33.37,-8.87157e-05
33.375,-7.43749e-05
33.38,-6.02398e-05
33.385,-4.6088e-05
33.39,-3.14578e-05
33.395,-1.75073e-05
33.4,-5.31543e-06
33.405,6.11846e-06
33.41,1.79664e-05
33.415,2.97212e-05
33.42,4.04118e-05
33.425,4.98737e-05
33.43,5.82617e-05
33.435,6.5396e-05
33.44,7.08255e-05
33.445,7.41274e-05
33.45,7.53752e-05
33.455,7.52166e-05
33.46,7.40534e-05
33.465,7.15238e-05
33.47,6.70998e-05
33.475,6.09405e-05
33.48,5.37095e-05
33.485,4.53168e-05
33.49,3.46689e-05
33.495,2.15836e-05
33.5,7.93635e-06
33.505,-4.39187e-06
33.51,-1.53137e-05
33.515,-2.52774e-05
33.52,-3.38723e-05
33.525,-4.0394e-05
33.53,-4.4667e-05
33.535,-4.69904e-05
33.54,-4.78776e-05
33.545,-4.77782e-05
33.55,-4.67415e-05
33.555,-4.46938e-05
33.56,-4.21947e-05
33.565,-4.01892e-05
33.57,-3.88254e-05
33.575,-3.74983e-05
33.58,-3.59579e-05
33.585,-3.4375e-05
33.59,-3.25313e-05
33.595,-2.9498e-05
33.6,-2.41354e-05
33.605,-1.59027e-05
33.61,-5.07306e-06
33.615,7.70925e-06
33.62,2.18461e-05
33.625,3.67054e-05
33.63,5.13699e-05
33.635,6.48582e-05
33.64,7.6462e-05
33.645,8.58406e-05
33.65,9.28322e-05
33.655,9.71425e-05
33.66,9.8851e-05
33.665,9.90554e-05
33.67,9.91312e-05
33.675,9.96281e-05
33.68,0.000100324
33.685,0.000100906
33.69,0.00010147
33.695,0.000102522
33.7,0.000104268
33.705,0.000106305
33.71,0.000108293
33.715,0.00011009
33.72,0.000111071
33.725,0.00011029
33.73,0.000107697
33.735,0.000104227
33.74,0.000100342
33.745,9.55618e-05
33.75,8.95588e-05
33.755,8.27116e-05
33.76,7.55794e-05
33.765,6.85204e-05
33.77,6.1811e-05
33.775,5.57891e-05
33.78,5.0759e-05
33.785,4.68743e-05
33.79,4.43456e-05
33.795,4.36707e-05
33.8,4.50744e-05
33.805,4.75556e-05
33.81,4.95932e-05
33.815,5.1138e-05
33.82,5.31805e-05
33.825,5.53953e-05
33.83,5.63919e-05
33.835,5.59496e-05
33.84,5.49715e-05
33.845,5.38309e-05
33.85,5.25311e-05
33.855,5.14641e-05
33.86,5.10476e-05
33.865,5.15374e-05
33.87,5.28654e-05
33.875,5.43453e-05
33.88,5.52928e-05
33.885,5.59372e-05
33.89,5.70541e-05
33.895,5.86541e-05
33.9,5.99925e-05
33.905,6.08048e-05
33.91,6.14954e-05
33.915,6.2323e-05
33.92,6.3132e-05
33.925,6.3611e-05
33.93,6.3305e-05
33.935,6.18574e-05
33.94,5.9412e-05
33.945,5.60664e-05
33.95,5.14186e-05
33.955,4.53422e-05
33.96,3.84878e-05
33.965,3.15621e-05
33.97,2.47916e-05
33.975,1.83102e-05
33.98,1.21972e-05
33.985,6.20536e-06
33.99,1.42096e-07
33.995,-5.86516e-06
34,-1.16862e-05
34.005,-1.73594e-05
34.01,-2.2916e-05
34.015,-2.82918e-05
34.02,-3.35107e-05
34.025,-3.88087e-05
34.03,-4.41391e-05
34.035,-4.87014e-05
34.04,-5.16974e-05
34.045,-5.32608e-05
34.05,-5.39519e-05
34.055,-5.36884e-05
34.06,-5.17919e-05
34.065,-4.78139e-05
34.07,-4.18339e-05
34.075,-3.45358e-05
34.08,-2.69718e-05
34.085,-1.93796e-05
34.09,-1.08244e-05
34.095,-4.58157e-07
34.1,1.15893e-05
34.105,2.44863e-05
34.11,3.75665e-05
34.115,5.0879e-05
34.12,6.48008e-05
34.125,7.95101e-05
34.13,9.48093e-05
34.135,0.00011018
34.14,0.00012517
34.145,0.000139544
34.15,0.000153133
34.155,0.000165716
34.16,0.000176917
34.165,0.000186466
34.17,0.000194481
34.175,0.000201347
34.18,0.000207264
34.185,0.000211951
34.19,0.000215294
34.195,0.000217905
34.2,0.000220201
34.205,0.000221718
34.21,0.0002221
34.215,0.000221782
34.22,0.000221333
34.225,0.000220878
34.23,0.000220441
34.235,0.000220404
34.24,0.000221208
34.245,0.000222739
34.25,0.000224736
34.255,0.000227368
34.26,0.000230529
34.265,0.000233321
34.27,0.000234871
34.275,0.00023496
34.28,0.000233803
34.285,0.000231694
34.29,0.000228885
34.295,0.000225218
34.3,0.000220156
34.305,0.000214048
34.31,0.000208524
34.315,0.000204595
34.32,0.000201616
34.325,0.000198917
34.33,0.00019676
34.335,0.000195091
34.34,0.000193148
34.345,0.000190579
34.35,0.000187602
34.355,0.000184257
34.36,0.000180301
34.365,0.000175615
34.37,0.000170263
34.375,0.000164338
34.38,0.000157951
34.385,0.000150917
34.39,0.000142671
34.395,0.000133149
34.4,0.000123107
34.405,0.000113173
34.41,0.000103434
34.415,9.40102e-05
34.42,8.53169e-05
34.425,7.78352e-05
34.43,7.20753e-05
34.435,6.83467e-05
34.44,6.62984e-05
34.445,6.52588e-05
34.45,6.49428e-05
34.455,6.53031e-05
34.46,6.60653e-05
34.465,6.67394e-05
34.47,6.67884e-05
34.475,6.60802e-05
34.48,6.53092e-05
34.485,6.49939e-05
34.49,6.45519e-05
34.495,6.36373e-05
34.5,6.30392e-05
34.505,6.30681e-05
34.51,6.2883e-05
34.515,6.2204e-05
34.52,6.15473e-05
34.525,6.06977e-05
34.53,5.91164e-05
34.535,5.70173e-05
34.54,5.46228e-05
34.545,5.18127e-05
34.55,4.88668e-05
34.555,4.63543e-05
34.56,4.45501e-05
34.565,4.32421e-05
34.57,4.2058e-05
34.575,4.10066e-05
34.58,4.00385e-05
34.585,3.83666e-05
34.59,3.51211e-05
34.595,3.03552e-05
34.6,2.52723e-05
34.605,2.13669e-05
34.61,1.88105e-05
34.615,1.66621e-05
34.62,1.47923e-05
34.625,1.38067e-05
34.63,1.38289e-05
34.635,1.48526e-05
34.64,1.69347e-05
34.645,1.94662e-05
34.65,2.17579e-05
34.655,2.39571e-05
34.66,2.63e-05
34.665,2.86458e-05
34.67,3.10026e-05
34.675,3.34155e-05
34.68,3.59825e-05
34.685,3.92099e-05
34.69,4.34117e-05
34.695,4.83549e-05
34.7,5.3661e-05
34.705,5.87044e-05
34.71,6.30451e-05
34.715,6.69773e-05
34.72,7.02381e-05
34.725,7.14413e-05
34.73,7.00087e-05
34.735,6.71019e-05
34.74,6.407e-05
34.745,6.11887e-05
34.75,5.83004e-05
34.755,5.54125e-05
34.76,5.21348e-05
34.765,4.79849e-05
34.77,4.31683e-05
34.775,3.80502e-05
34.78,3.29921e-05
34.785,2.8661e-05
34.79,2.53643e-05
34.795,2.29632e-05
34.8,2.15541e-05
34.805,2.11238e-05
34.81,2.1024e-05
34.815,2.04681e-05
34.82,1.91634e-05
34.825,1.73832e-05
34.83,1.53953e-05
34.835,1.28996e-05
34.84,9.73311e-06
34.845,6.64785e-06
34.85,4.36656e-06
34.855,2.7686e-06
34.86,1.75577e-06
34.865,1.60133e-06
34.87,2.08919e-06
34.875,2.54188e-06
34.88,2.46164e-06
34.885,1.38198e-06
34.89,-1.32443e-06
34.895,-6.17125e-06
34.9,-1.31752e-05
34.905,-2.17633e-05
34.91,-3.12405e-05
34.915,-4.12323e-05
34.92,-5.14956e-05
34.925,-6.14291e-05
34.93,-7.04127e-05
34.935,-7.86745e-05
34.94,-8.69903e-05
34.945,-9.56256e-05
34.95,-0.00010423
34.955,-0.000112957
34.96,-0.0001229
34.965,-0.000134554
34.97,-0.000146835
34.975,-0.000158472
34.98,-0.000169146
34.985,-0.000178982
34.99,-0.000188041
34.995,-0.000196196
35,-0.000203104
35.005,-0.000208663
35.01,-0.000213094
35.015,-0.000216238
35.02,-0.000217823
35.025,-0.000218253
35.03,-0.0002179
35.035,-0.00021622
35.04,-0.000212491
35.045,-0.000206873
35.05,-0.000200176
35.055,-0.000192743
35.06,-0.000184473
35.065,-0.000175949
35.07,-0.000168348
35.075,-0.000162257
35.08,-0.000157176
35.085,-0.000152141
35.09,-0.000146492
35.095,-0.000139865
35.1,-0.000132021
35.105,-0.00012322
35.11,-0.00011434
35.115,-0.000106088
35.12,-9.86043e-05
35.125,-9.21816e-05
35.13,-8.73663e-05
35.135,-8.42077e-05
35.14,-8.20364e-05
35.145,-7.97617e-05
35.15,-7.6358e-05
35.155,-7.14642e-05
35.16,-6.54968e-05
35.165,-5.91117e-05
35.17,-5.28301e-05
35.175,-4.69293e-05
35.18,-4.1501e-05
35.185,-3.68634e-05
35.19,-3.34291e-05
35.195,-3.11462e-05
35.2,-2.93912e-05
35.205,-2.72024e-05
35.21,-2.38262e-05
35.215,-1.91731e-05
35.22,-1.35833e-05
35.225,-7.58188e-06
35.23,-2.00594e-06
35.235,2.42164e-06
35.24,5.87258e-06
35.245,9.10847e-06
35.25,1.2386e-05
35.255,1.5253e-05
35.26,1.74683e-05
35.265,1.95376e-05
35.27,2.20251e-05
35.275,2.49687e-05
35.28,2.80784e-05
35.285,3.08629e-05
35.29,3.29326e-05
35.295,3.44847e-05
35.3,3.59889e-05
35.305,3.73788e-05
35.31,3.81002e-05
35.315,3.79064e-05
35.32,3.68598e-05
35.325,3.48109e-05
35.33,3.18115e-05
35.335,2.83492e-05
35.34,2.44484e-05
35.345,1.95539e-05
35.35,1.34836e-05
35.355,6.40105e-06
35.36,-1.7075e-06
35.365,-1.07587e-05
35.37,-2.0654e-05
35.375,-3.1565e-05
35.38,-4.32925e-05
35.385,-5.4974e-05
35.39,-6.5817e-05
35.395,-7.56105e-05
35.4,-8.46303e-05
35.405,-9.32009e-05
35.41,-0.000101129
35.415,-0.00010796
35.42,-0.000114023
35.425,-0.000120555
35.43,-0.000128459
35.435,-0.000137417
35.44,-0.000146595
35.445,-0.00015576
35.45,-0.000165117
35.455,-0.000174498
35.46,-0.000183258
35.465,-0.000190622
35.47,-0.000195982
35.475,-0.000199058
35.48,-0.000199718
35.485,-0.000198081
35.49,-0.000194927
35.495,-0.000191077
35.5,-0.000186579
35.505,-0.000181163
35.51,-0.00017491
35.515,-0.000168101
35.52,-0.000160868
35.525,-0.00015328
35.53,-0.000145541
35.535,-0.000137946
35.54,-0.000130845
35.545,-0.000124822
35.55,-0.000120604
35.555,-0.000118271
35.56,-0.000116825
35.565,-0.000115095
35.57,-0.000112609
35.575,-0.000109488
35.58,-0.000105913
35.585,-0.000101681
35.59,-9.6441e-05
35.595,-9.01222e-05
35.6,-8.27827e-05
35.605,-7.46067e-05
35.61,-6.6351e-05
35.615,-5.92257e-05
35.62,-5.39746e-05
35.625,-5.03128e-05
35.63,-4.74074e-05
35.635,-4.47142e-05
35.64,-4.21934e-05
35.645,-3.97652e-05
35.65,-3.69536e-05
35.655,-3.3478e-05
35.66,-2.97299e-05
35.665,-2.61834e-05
35.67,-2.28995e-05
35.675,-1.95096e-05
35.68,-1.51978e-05
35.685,-9.3236e-06
35.69,-2.16646e-06
35.695,5.71944e-06
35.7,1.46172e-05
35.705,2.52051e-05
35.71,3.74084e-05
35.715,5.036e-05
35.72,6.29546e-05
35.725,7.436e-05
35.73,8.44888e-05
35.735,9.35183e-05
35.74,0.000101211
35.745,0.000107652
35.75,0.000113893
35.755,0.000120989
35.76,0.000129118
35.765,0.000138087
35.77,0.000147929
35.775,0.000158639
35.78,0.000169748
35.785,0.000180562
35.79,0.00019066
35.795,0.000199704
35.8,0.000207186
35.805,0.000212719
35.81,0.000216128
35.815,0.000217522
35.82,0.000217473
35.825,0.000216541
35.83,0.000215043
35.835,0.000213236
35.84,0.000210622
35.845,0.000206034
35.85,0.000199647
35.855,0.00019334
35.86,0.00018793
35.865,0.000182111
35.87,0.000175123
35.875,0.000168084
35.88,0.000161685
35.885,0.000154747
35.89,0.000146045
35.895,0.000135921
35.9,0.000125245
35.905,0.000113935
35.91,0.000101188
35.915,8.66541e-05
35.92,7.1026e-05
35.925,5.53488e-05
35.93,4.01862e-05
35.935,2.60791e-05
35.94,1.40691e-05
35.945,4.65789e-06
35.95,-2.83103e-06
35.955,-8.81056e-06
35.96,-1.27265e-05
35.965,-1.44622e-05
35.97,-1.4982e-05
35.975,-1.50609e-05
35.98,-1.44114e-05
35.985,-1.27022e-05
35.99,-1.04383e-05
35.995,-8.24747e-06
36,-6.27847e-06
36.005,-4.51116e-06
36.01,-2.71055e-06
36.015,-3.85753e-07
36.02,2.35308e-06
36.025,4.91005e-06
36.03,7.25661e-06
36.035,9.60934e-06
36.04,1.19158e-05
36.045,1.41165e-05
36.05,1.60422e-05
36.055,1.75649e-05
36.06,1.87644e-05
36.065,1.932e-05
36.07,1.86607e-05
36.075,1.68772e-05
36.08,1.41896e-05
36.085,9.91921e-06
36.09,3.62143e-06
36.095,-3.50961e-06
36.1,-9.73355e-06
36.105,-1.44146e-05
36.11,-1.81468e-05
36.115,-2.18577e-05
36.12,-2.58747e-05
36.125,-2.99925e-05
36.13,-3.42224e-05
36.135,-3.87016e-05
36.14,-4.33251e-05
36.145,-4.80835e-05
36.15,-5.30109e-05
36.155,-5.78311e-05
36.16,-6.22714e-05
36.165,-6.63333e-05
36.17,-7.01715e-05
36.175,-7.3978e-05
36.18,-7.76832e-05
36.185,-8.10116e-05
36.19,-8.40325e-05
36.195,-8.69017e-05
36.2,-8.94051e-05
36.205,-9.13793e-05
36.21,-9.26838e-05
36.215,-9.29984e-05
36.22,-9.26538e-05
36.225,-9.2516e-05
36.23,-9.26664e-05
36.235,-9.25734e-05
36.24,-9.20598e-05
36.245,-9.12448e-05
36.25,-9.02824e-05
36.255,-8.9438e-05
36.26,-8.88307e-05
36.265,-8.80902e-05
36.27,-8.68741e-05
36.275,-8.55274e-05
36.28,-8.46123e-05
36.285,-8.40669e-05
36.29,-8.33259e-05
36.295,-8.20506e-05
36.3,-8.0198e-05
36.305,-7.77886e-05
36.31,-7.50324e-05
36.315,-7.21944e-05
36.32,-6.94134e-05
36.325,-6.67221e-05
36.33,-6.39646e-05
36.335,-6.11007e-05
36.34,-5.83303e-05
36.345,-5.54748e-05
36.35,-5.19805e-05
36.355,-4.77552e-05
36.36,-4.33522e-05
36.365,-3.89021e-05
36.37,-3.36087e-05
36.375,-2.72105e-05
36.38,-2.07089e-05
36.385,-1.49254e-05
36.39,-9.70986e-06
36.395,-4.75273e-06
36.4,-1.3215e-07
36.405,3.97575e-06
36.41,7.54098e-06
36.415,1.04435e-05
36.42,1.23843e-05
36.425,1.34551e-05
36.43,1.43817e-05
36.435,1.58848e-05
36.44,1.82947e-05
36.445,2.16972e-05
36.45,2.60771e-05
36.455,3.13442e-05
36.46,3.7366e-05
36.465,4.39903e-05
36.47,5.07118e-05
36.475,5.67342e-05
36.48,6.1872e-05
36.485,6.66355e-05
36.49,7.10835e-05
36.495,7.46156e-05
36.5,7.70696e-05
36.505,7.86795e-05
36.51,7.90954e-05
36.515,7.77757e-05
36.52,7.50477e-05
36.525,7.19628e-05
36.53,6.92309e-05
36.535,6.66369e-05
36.54,6.3701e-05
36.545,6.05026e-05
36.55,5.74527e-05
36.555,5.47369e-05
36.56,5.23536e-05
36.565,5.04527e-05
36.57,4.93472e-05
36.575,4.89749e-05
36.58,4.86121e-05
36.585,4.76266e-05
36.59,4.61268e-05
36.595,4.45973e-05
36.6,4.35069e-05
36.605,4.3105e-05
36.61,4.31365e-05
36.615,4.32104e-05
36.62,4.34221e-05
36.625,4.40947e-05
36.63,4.52673e-05
36.635,4.67995e-05
36.64,4.86392e-05
36.645,5.08314e-05
36.65,5.34414e-05
36.655,5.64541e-05
36.66,5.96594e-05
36.665,6.2598e-05
36.67,6.45231e-05
36.675,6.46999e-05
36.68,6.30846e-05
36.685,6.01029e-05
36.69,5.5716e-05
36.695,4.99079e-05
36.7,4.38455e-05
36.705,3.90354e-05
36.71,3.54574e-05
36.715,3.17366e-05
36.72,2.69433e-05
36.725,2.11338e-05
36.73,1.44811e-05
36.735,6.7436e-06
36.74,-2.43102e-06
36.745,-1.28556e-05
36.75,-2.38794e-05
36.755,-3.51172e-05
36.76,-4.64355e-05
36.765,-5.74755e-05
36.77,-6.78657e-05
36.775,-7.7455e-05
36.78,-8.60001e-05
36.785,-9.3408e-05
36.79,-0.000100074
36.795,-0.00010628
36.8,-0.000111801
36.805,-0.000116378
36.81,-0.000120073
36.815,-0.000123116
36.82,-0.000125464
36.825,-0.00012654
36.83,-0.000125939
36.835,-0.000124099
36.84,-0.000121494
36.845,-0.000117924
36.85,-0.000113199
36.855,-0.000107531
36.86,-0.000101181
36.865,-9.43773e-05
36.87,-8.72531e-05
36.875,-7.9743e-05
36.88,-7.18154e-05
36.885,-6.36309e-05
36.89,-5.5401e-05
36.895,-4.73425e-05
36.9,-3.98652e-05
36.905,-3.35181e-05
36.91,-2.83991e-05
36.915,-2.39616e-05
36.92,-1.97768e-05
36.925,-1.59007e-05
36.93,-1.21603e-05
36.935,-7.68986e-06
36.94,-1.69968e-06
36.945,5.50926e-06
36.95,1.29411e-05
36.955,2.00375e-05
36.96,2.6695e-05
36.965,3.26903e-05
36.97,3.77603e-05
36.975,4.19472e-05
36.98,4.55671e-05
36.985,4.88219e-05
36.99,5.16253e-05
36.995,5.39589e-05
37,5.62404e-05
37.005,5.92306e-05
37.01,6.33349e-05
37.015,6.78748e-05
37.02,7.17162e-05
37.025,7.45527e-05
37.03,7.68572e-05
37.035,7.8966e-05
37.04,8.06744e-05
37.045,8.16983e-05
37.05,8.23448e-05
37.055,8.3244e-05
37.06,8.46661e-05
37.065,8.63847e-05
37.07,8.77921e-05
37.075,8.81602e-05
37.08,8.68957e-05
37.085,8.37403e-05
37.09,7.93152e-05
37.095,7.49048e-05
37.1,7.10381e-05
37.105,6.7289e-05
37.11,6.36935e-05
37.115,6.09678e-05
37.12,5.92611e-05
37.125,5.77274e-05
37.13,5.5368e-05
37.135,5.18302e-05
37.14,4.7062e-05
37.145,4.04934e-05
37.15,3.14889e-05
37.155,2.04211e-05
37.16,8.43548e-06
37.165,-3.48591e-06
37.17,-1.46321e-05
37.175,-2.43073e-05
37.18,-3.19103e-05
37.185,-3.71752e-05
37.19,-4.03925e-05
37.195,-4.21718e-05
37.2,-4.29162e-05
37.205,-4.29292e-05
37.21,-4.27558e-05
37.215,-4.30453e-05
37.22,-4.43213e-05
37.225,-4.67396e-05
37.23,-5.00266e-05
37.235,-5.38806e-05
37.24,-5.79512e-05
37.245,-6.16716e-05
37.25,-6.49236e-05
37.255,-6.82407e-05
37.26,-7.1856e-05
37.265,-7.52953e-05
37.27,-7.79516e-05
37.275,-7.96076e-05
37.28,-8.04042e-05
37.285,-8.03151e-05
37.29,-7.90731e-05
37.295,-7.67949e-05
37.3,-7.39895e-05
37.305,-7.11042e-05
37.31,-6.86925e-05
37.315,-6.76385e-05
37.32,-6.84941e-05
37.325,-7.08338e-05
37.33,-7.39085e-05
37.335,-7.7569e-05
37.34,-8.19929e-05
37.345,-8.69917e-05
37.35,-9.20312e-05
37.355,-9.65943e-05
37.36,-0.000100266
37.365,-0.000102824
37.37,-0.000104475
37.375,-0.000105694
37.38,-0.000106954
37.385,-0.000108715
37.39,-0.000111203
37.395,-0.000114154
37.4,-0.000117031
37.405,-0.000119406
37.41,-0.000121041
37.415,-0.000121909
37.42,-0.000121941
37.425,-0.000120613
37.43,-0.000117419
37.435,-0.000112576
37.44,-0.000106582
37.445,-9.96811e-05
37.45,-9.21398e-05
37.455,-8.44425e-05
37.46,-7.70191e-05
37.465,-6.99045e-05
37.47,-6.29076e-05
37.475,-5.62519e-05
37.48,-5.05014e-05
37.485,-4.56963e-05
37.49,-4.12519e-05
37.495,-3.68024e-05
37.5,-3.2502e-05
37.505,-2.85462e-05
37.51,-2.49433e-05
37.515,-2.15732e-05
37.52,-1.80689e-05
37.525,-1.41551e-05
37.53,-1.01379e-05
37.535,-6.35737e-06
37.54,-2.73439e-06
37.545,6.7675e-07
37.55,3.4226e-06
37.555,5.19699e-06
37.56,6.12129e-06
37.565,5.98498e-06
37.57,4.12581e-06
37.575,5.68659e-07
37.58,-4.09475e-06
37.585,-9.80943e-06
37.59,-1.67199e-05
37.595,-2.42594e-05
37.6,-3.13707e-05
37.605,-3.73634e-05
37.61,-4.2216e-05
37.615,-4.61899e-05
37.62,-4.94559e-05
37.625,-5.1963e-05
37.63,-5.36142e-05
37.635,-5.46971e-05
37.64,-5.57861e-05
37.645,-5.70918e-05
37.65,-5.81874e-05
37.655,-5.8632e-05
37.66,-5.86023e-05
37.665,-5.83864e-05
37.67,-5.78099e-05
37.675,-5.67167e-05
37.68,-5.52159e-05
37.685,-5.33265e-05
37.69,-5.10615e-05
37.695,-4.84952e-05
37.7,-4.55379e-05
37.705,-4.20331e-05
37.71,-3.782e-05
37.715,-3.29266e-05
37.72,-2.80468e-05
37.725,-2.41596e-05
37.73,-2.15829e-05
37.735,-1.99994e-05
37.74,-1.93542e-05
37.745,-2.00163e-05
37.75,-2.19115e-05
37.755,-2.43647e-05
37.76,-2.69471e-05
37.765,-2.97012e-05
37.77,-3.25026e-05
37.775,-3.48867e-05
37.78,-3.66669e-05
37.785,-3.81609e-05
37.79,-3.95617e-05
37.795,-4.07317e-05
37.8,-4.18068e-05
37.805,-4.31227e-05
37.81,-4.46059e-05
37.815,-4.61893e-05
37.82,-4.82207e-05
37.825,-5.09115e-05
37.83,-5.41244e-05
37.835,-5.75539e-05
37.84,-6.0803e-05
37.845,-6.3716e-05
37.85,-6.63484e-05
37.855,-6.85475e-05
37.86,-7.00619e-05
37.865,-7.06985e-05
37.87,-7.02424e-05
37.875,-6.86661e-05
37.88,-6.61051e-05
37.885,-6.2617e-05
37.89,-5.83922e-05
37.895,-5.38303e-05
37.9,-4.92007e-05
37.905,-4.45765e-05
37.91,-4.00461e-05
37.915,-3.5749e-05
37.92,-3.17464e-05
37.925,-2.7968e-05
37.93,-2.42028e-05
37.935,-2.01647e-05
37.94,-1.57118e-05
37.945,-1.09944e-05
37.95,-6.28192e-06
37.955,-1.61122e-06
37.96,3.10311e-06
37.965,7.60472e-06
37.97,1.16112e-05
37.975,1.53251e-05
37.98,1.90064e-05
37.985,2.25197e-05
37.99,2.5635e-05
37.995,2.83206e-05
38,3.05396e-05
38.005,3.20769e-05
38.01,3.27885e-05
38.015,3.27863e-05
38.02,3.23286e-05
38.025,3.16973e-05
38.03,3.10576e-05
38.035,3.04024e-05
38.04,2.97054e-05
38.045,2.90113e-05
38.05,2.83847e-05
38.055,2.79179e-05
38.06,2.7722e-05
38.065,2.768e-05
38.07,2.73018e-05
38.075,2.60814e-05
38.08,2.38906e-05
38.085,2.08394e-05
38.09,1.71621e-05
38.095,1.35026e-05
38.1,1.06297e-05
38.105,8.65751e-06
38.11,7.216e-06
38.115,6.12434e-06
38.12,5.3625e-06
38.125,4.83485e-06
38.13,4.48704e-06
38.135,4.45333e-06
38.14,4.96054e-06
38.145,6.01895e-06
38.15,7.36954e-06
38.155,8.86938e-06
38.16,1.05861e-05
38.165,1.23503e-05
38.17,1.37585e-05
38.175,1.46613e-05
38.18,1.51282e-05
38.185,1.52184e-05
38.19,1.50891e-05
38.195,1.49512e-05
38.2,1.49796e-05
38.205,1.54591e-05
38.21,1.66562e-05
38.215,1.83972e-05
38.22,2.0161e-05
38.225,2.16203e-05
38.23,2.28487e-05
38.235,2.39942e-05
38.24,2.48811e-05
38.245,2.51292e-05
38.25,2.47203e-05
38.255,2.41499e-05
38.26,2.38773e-05
38.265,2.38444e-05
38.27,2.37039e-05
38.275,2.33441e-05
38.28,2.29208e-05
38.285,2.24903e-05
38.29,2.19095e-05
38.295,2.1106e-05
38.3,2.02803e-05
38.305,1.97113e-05
38.31,1.95666e-05
38.315,1.99865e-05
38.32,2.10351e-05
38.325,2.25332e-05
38.33,2.41816e-05
38.335,2.58344e-05
38.34,2.74938e-05
38.345,2.91165e-05
38.35,3.0615e-05
38.355,3.19983e-05
38.36,3.33889e-05
38.365,3.48978e-05
38.37,3.65459e-05
38.375,3.8256e-05
38.38,3.9859e-05
38.385,4.11802e-05
38.39,4.22171e-05
38.395,4.3083e-05
38.4,4.37283e-05
38.405,4.40211e-05
38.41,4.40995e-05
38.415,4.42186e-05
38.42,4.43817e-05
38.425,4.45369e-05
38.43,4.48352e-05
38.435,4.53315e-05
38.44,4.57972e-05
38.445,4.6023e-05
38.45,4.59518e-05
38.455,4.55405e-05
38.46,4.48533e-05
38.465,4.4068e-05
38.47,4.31546e-05
38.475,4.19352e-05
38.48,4.04708e-05
38.485,3.89498e-05
38.49,3.73602e-05
38.495,3.55327e-05
38.5,3.33843e-05
38.505,3.10514e-05
38.51,2.87997e-05
38.515,2.68153e-05
38.52,2.51308e-05
38.525,2.37042e-05
38.53,2.25618e-05
38.535,2.17646e-05
38.54,2.12494e-05
38.545,2.09247e-05
38.55,2.07791e-05
38.555,2.07225e-05
38.56,2.05742e-05
38.565,2.01956e-05
38.57,1.95075e-05
38.575,1.85325e-05
38.58,1.73658e-05
38.585,1.59642e-05
38.59,1.42342e-05
38.595,1.23912e-05
38.6,1.0786e-05
38.605,9.42965e-06
38.61,8.1498e-06
38.615,6.94724e-06
38.62,5.81178e-06
38.625,4.57532e-06
38.63,3.2148e-06
38.635,1.89643e-06
38.64,6.58213e-07
38.645,-5.78755e-07
38.65,-1.75703e-06
38.655,-2.78841e-06
38.66,-3.74603e-06
38.665,-4.70627e-06
38.67,-5.58905e-06
38.675,-6.32607e-06
38.68,-6.99969e-06
38.685,-7.71604e-06
38.69,-8.49154e-06
38.695,-9.26818e-06
38.7,-9.92475e-06
38.705,-1.03224e-05
38.71,-1.03996e-05
38.715,-1.02531e-05
38.72,-1.00679e-05
38.725,-9.91651e-06
38.73,-9.69195e-06
38.735,-9.29367e-06
38.74,-8.77459e-06
38.745,-8.24094e-06
38.75,-7.70133e-06
38.755,-7.07211e-06
38.76,-6.24103e-06
38.765,-5.13908e-06
38.77,-3.81037e-06
38.775,-2.35757e-06
38.78,-7.92453e-07
38.785,9.70492e-07
38.79,2.9474e-06
38.795,4.99342e-06
38.8,6.95736e-06
38.805,8.81881e-06
38.81,1.06114e-05
38.815,1.23222e-05
38.82,1.39217e-05
38.825,1.54172e-05
38.83,1.68369e-05
38.835,1.81723e-05
38.84,1.93616e-05
38.845,2.03606e-05
38.85,2.123e-05
38.855,2.20635e-05
38.86,2.28767e-05
38.865,2.36822e-05
38.87,2.45536e-05
38.875,2.54881e-05
38.88,2.64155e-05
38.885,2.73567e-05
38.89,2.83538e-05
38.895,2.93472e-05
38.9,3.02857e-05
38.905,3.12278e-05
38.91,3.22512e-05
38.915,3.33469e-05
38.92,3.44475e-05
38.925,3.54829e-05
38.93,3.64141e-05
38.935,3.724e-05
38.94,3.79595e-05
38.945,3.85368e-05
38.95,3.89638e-05
38.955,3.93209e-05
38.96,3.97064e-05
38.965,4.01129e-05
38.97,4.04459e-05
38.975,4.06639e-05
38.98,4.0796e-05
38.985,4.0823e-05
38.99,4.07148e-05
38.995,4.05186e-05
39,4.0273e-05
39.005,3.99263e-05
39.01,3.94393e-05
39.015,3.88762e-05
39.02,3.8324e-05
39.025,3.77607e-05
39.03,3.70835e-05
39.035,3.62519e-05
39.04,3.53068e-05
39.045,3.42635e-05
39.05,3.31087e-05
39.055,3.18411e-05
39.06,3.0476e-05
39.065,2.90484e-05
39.07,2.76007e-05
39.075,2.61614e-05
39.08,2.47349e-05
39.085,2.32915e-05
39.09,2.18189e-05
39.095,2.0364e-05
39.1,1.89824e-05
39.105,1.76815e-05
39.11,1.64456e-05
39.115,1.52866e-05
39.12,1.42458e-05
39.125,1.33389e-05
39.13,1.25555e-05
39.135,1.18957e-05
39.14,1.1351e-05
39.145,1.08727e-05
39.15,1.04038e-05
39.155,9.9055e-06
39.16,9.35779e-06
39.165,8.75731e-06
39.17,8.12257e-06
39.175,7.48516e-06
39.18,6.87396e-06
39.185,6.30375e-06
39.19,5.77952e-06
39.195,5.29405e-06
39.2,4.82991e-06
39.205,4.36486e-06
39.21,3.88965e-06
39.215,3.40726e-06
39.22,2.91535e-06
39.225,2.3962e-06
39.23,1.84569e-06
39.235,1.2989e-06
39.24,8.02689e-07
39.245,3.56434e-07
39.25,-7.64845e-08
39.255,-5.15037e-07
39.26,-9.52446e-07
39.265,-1.39049e-06
39.27,-1.83322e-06
39.275,-2.2723e-06
39.28,-2.69822e-06
39.285,-3.10249e-06
39.29,-3.45723e-06
39.295,-3.72828e-06
39.3,-3.89422e-06
39.305,-3.9569e-06
39.31,-3.93824e-06
39.315,-3.85806e-06
39.32,-3.71734e-06
39.325,-3.52358e-06
39.33,-3.29527e-06
39.335,-3.04214e-06
39.34,-2.75585e-06
39.345,-2.42634e-06
39.35,-2.05593e-06
39.355,-1.66149e-06
39.36,-1.25572e-06
39.365,-8.42349e-07
39.37,-4.19508e-07
39.375,1.15328e-08
39.38,4.41101e-07
39.385,8.5327e-07
39.39,1.24709e-06
39.395,1.63133e-06
39.4,2.00507e-06
39.405,2.35613e-06
39.41,2.67854e-06
39.415,2.97253e-06
39.42,3.24618e-06
39.425,3.50909e-06
39.43,3.75892e-06
39.435,3.9808e-06
39.44,4.17211e-06
39.445,4.33987e-06
39.45,4.48833e-06
39.455,4.61846e-06
39.46,4.73537e-06
39.465,4.84289e-06
39.47,4.94402e-06
39.475,5.03647e-06
39.48,5.11615e-06
39.485,5.18157e-06
39.49,5.23787e-06
39.495,5.28951e-06
39.5,5.34061e-06
39.505,5.39268e-06
39.51,5.44558e-06
39.515,5.49524e-06
39.52,5.54113e-06
39.525,5.58485e-06
39.53,5.62754e-06
39.535,5.66576e-06
39.54,5.69912e-06
39.545,5.73003e-06
39.55,5.76224e-06
39.555,5.79294e-06
39.56,5.81621e-06
39.565,5.82676e-06
39.57,5.82375e-06
39.575,5.80203e-06
39.58,5.7545e-06
39.585,5.67731e-06
39.59,5.5746e-06
39.595,5.44836e-06
39.6,5.29693e-06
39.605,5.11695e-06
39.61,4.91017e-06
39.615,4.6779e-06
39.62,4.42212e-06
39.625,4.14487e-06
39.63,3.84965e-06
39.635,3.53716e-06
39.64,3.21029e-06
39.645,2.87213e-06
39.65,2.52676e-06
39.655,2.17673e-06
39.66,1.82608e-06
39.665,1.47548e-06
39.67,1.12559e-06
39.675,7.76984e-07
39.68,4.32163e-07
39.685,9.11316e-08
39.69,-2.44686e-07
39.695,-5.74792e-07
39.7,-8.97209e-07
39.705,-1.21099e-06
39.71,-1.51442e-06
39.715,-1.80864e-06
39.72,-2.09297e-06
39.725,-2.36724e-06
39.73,-2.63084e-06
39.735,-2.88535e-06
39.74,-3.13053e-06
39.745,-3.36751e-06
39.75,-3.59605e-06
39.755,-3.81709e-06
39.76,-4.03006e-06
39.765,-4.23592e-06
39.77,-4.43406e-06
39.775,-4.6252e-06
39.78,-4.80889e-06
39.785,-4.98649e-06
39.79,-5.15774e-06
39.795,-5.32364e-06
39.8,-5.48381e-06
39.805,-5.6395e-06
39.81,-5.79025e-06
39.815,-5.93675e-06
39.82,-6.07824e-06
39.825,-6.21539e-06
39.83,-6.34728e-06
39.835,-6.47441e-06
39.84,-6.59556e-06
39.845,-6.71077e-06
39.85,-6.81839e-06
39.855,-6.91814e-06
39.86,-7.00821e-06
39.865,-7.08839e-06
39.87,-7.1572e-06
39.875,-7.21486e-06
39.88,-7.26031e-06
39.885,-7.29411e-06
39.89,-7.31545e-06
39.895,-7.32506e-06
39.9,-7.32247e-06
39.905,-7.30891e-06
39.91,-7.28436e-06
39.915,-7.25037e-06
39.92,-7.20717e-06
39.925,-7.15648e-06
39.93,-7.0987e-06
39.935,-7.03558e-06
39.94,-6.96749e-06
