
 ARS FOR LAYER    1   OUTCROPPING
 FREQ.(HZ)   D= 0.050
    0.1000   0.002102
    0.1051   0.002373
    0.1104   0.002896
    0.1161   0.003568
    0.1220   0.004186
    0.1282   0.004858
    0.1347   0.005690
    0.1416   0.006479
    0.1488   0.007254
    0.1564   0.008162
    0.1644   0.008806
    0.1727   0.009430
    0.1815   0.009890
    0.1908   0.010038
    0.2005   0.009644
    0.2107   0.010401
    0.2215   0.011830
    0.2328   0.013732
    0.2446   0.015967
    0.2571   0.018234
    0.2702   0.020210
    0.2839   0.023091
    0.2984   0.025429
    0.3136   0.026700
    0.3296   0.031766
    0.3464   0.035799
    0.3640   0.040769
    0.3826   0.045853
    0.4021   0.050610
    0.4226   0.052865
    0.4441   0.052159
    0.4667   0.055766
    0.4905   0.060244
    0.5155   0.063773
    0.5418   0.066143
    0.5694   0.068340
    0.5984   0.072619
    0.6289   0.078223
    0.6609   0.084016
    0.6946   0.090761
    0.7300   0.100544
    0.7672   0.123225
    0.8063   0.142617
    0.8473   0.156376
    0.8905   0.162444
    0.9359   0.170227
    0.9836   0.184502
    1.0337   0.199159
    1.0864   0.206224
    1.1417   0.201414
    1.1999   0.214592
    1.2610   0.239385
    1.3253   0.303382
    1.3928   0.388125
    1.4638   0.454062
    1.5383   0.476375
    1.6167   0.444069
    1.6991   0.485618
    1.7857   0.585776
    1.8766   0.604473
    1.9723   0.582802
    2.0727   0.696770
    2.1784   0.775161
    2.2894   0.796065
    2.4060   0.844046
    2.5286   0.815499
    2.6574   0.796352
    2.7928   0.696043
    2.9351   0.607259
    3.0847   0.506009
    3.2418   0.453655
    3.4070   0.460778
    3.5806   0.439703
    3.7630   0.444143
    3.9548   0.397929
    4.1563   0.325169
    4.3681   0.296741
    4.5906   0.280143
    4.8245   0.268256
    5.0703   0.274969
    5.3287   0.264837
    5.6002   0.263524
    5.8855   0.271536
    6.1854   0.257352
    6.5005   0.263291
    6.8318   0.279394
    7.1798   0.267742
    7.5457   0.266082
    7.9301   0.269384
    8.3342   0.273428
    8.7588   0.276508
    9.2051   0.263096
    9.6741   0.245627
   10.1670   0.229869
   10.6851   0.228866
   11.2295   0.215353
   11.8016   0.205933
   12.4030   0.210676
   13.0349   0.209183
   13.6991   0.198434
   14.3970   0.193944
   15.1306   0.193877
   15.9015   0.194215
   16.7117   0.195549
   17.5632   0.192906
   18.4581   0.191931
   19.3986   0.191018
   20.3870   0.191047
   21.4257   0.191270
   22.5174   0.191021
   23.6647   0.190412
   24.8704   0.190430
   26.1376   0.190430
   27.4694   0.190018
   28.8690   0.189898
   30.3399   0.190086
   31.8858   0.190283
   33.5104   0.190296
   35.2178   0.190366
   37.0122   0.190892
   38.8981   0.190143
   40.8800   0.191563
   42.9629   0.187870
   45.1519   0.186084
   47.4525   0.188574
   49.8703   0.190415
   52.4112   0.191734
   55.0817   0.193459
   57.8882   0.191913
   60.8377   0.190876
   63.9375   0.191279
   67.1952   0.190909
   70.6189   0.190629
   74.2170   0.190463
   77.9985   0.190303
   81.9727   0.190122
   86.1493   0.189906
   90.5388   0.189953
   95.1519   0.189489
  100.0000   0.190401
